Frequency (Hz)	Level (dB)
0.125000	-31.869221
0.250000	-55.656479
0.375000	-51.097141
0.500000	-44.916950
0.625000	-40.342789
0.750000	-37.297150
0.875000	-32.847271
1.000000	-31.468285
1.125000	-28.500256
1.250000	-27.501783
1.375000	-26.900324
1.500000	-26.236139
1.625000	-27.526075
1.750000	-27.719963
1.875000	-27.802544
2.000000	-27.412222
2.125000	-25.000025
2.250000	-24.501938
2.375000	-24.282948
2.500000	-24.727203
2.625000	-26.045017
2.750000	-25.952024
2.875000	-24.148037
3.000000	-24.335300
3.125000	-23.263113
3.250000	-24.995361
3.375000	-25.650900
3.500000	-24.239689
3.625000	-24.167444
3.750000	-23.305042
3.875000	-24.548182
4.000000	-25.414660
4.125000	-24.352583
4.250000	-23.708202
4.375000	-23.934048
4.500000	-24.687380
4.625000	-25.110552
4.750000	-24.353117
4.875000	-23.500711
5.000000	-24.795500
5.125000	-25.204622
5.250000	-24.315727
5.375000	-24.399281
5.500000	-24.053926
5.625000	-25.340250
5.750000	-25.226175
5.875000	-23.709789
6.000000	-24.988268
6.125000	-25.313704
6.250000	-24.712538
6.375000	-24.920647
6.500000	-24.387999
6.625000	-25.603374
6.750000	-25.508776
6.875000	-24.085327
7.000000	-25.458376
7.125000	-25.673903
7.250000	-24.711983
7.375000	-25.276686
7.500000	-25.308615
7.625000	-25.716208
7.750000	-25.366861
7.875000	-24.847137
8.000000	-26.101315
8.125000	-25.735229
8.250000	-25.022831
8.375000	-25.933325
8.500000	-26.022543
8.625000	-25.579279
8.750000	-25.519424
8.875000	-26.084417
9.000000	-26.277514
9.125000	-25.244471
9.250000	-26.090908
9.375000	-26.697210
9.500000	-25.280642
9.625000	-26.355436
9.750000	-26.735857
9.875000	-25.579756
10.000000	-26.515530
10.125000	-26.388123
10.250000	-25.981853
10.375000	-26.624260
10.500000	-26.148632
10.625000	-26.459797
10.750000	-26.698412
10.875000	-26.069937
11.000000	-26.987129
11.125000	-26.595211
11.250000	-26.342453
11.375000	-27.256704
11.500000	-26.482700
11.625000	-26.664545
11.750000	-27.163546
11.875000	-26.446314
12.000000	-27.090050
12.125000	-27.073992
12.250000	-26.631487
12.375000	-27.391014
12.500000	-26.898458
12.625000	-26.865606
12.750000	-27.303787
12.875000	-26.876217
13.000000	-27.325100
13.125000	-27.084946
13.250000	-27.242079
13.375000	-27.804291
13.500000	-26.781199
13.625000	-27.613113
13.750000	-28.013351
13.875000	-26.585064
14.000000	-27.793682
14.125000	-28.057007
14.250000	-26.688766
14.375000	-28.046169
14.500000	-27.900486
14.625000	-27.114298
14.750000	-28.003891
14.875000	-27.680233
15.000000	-27.701494
15.125000	-27.818556
15.250000	-27.425108
15.375000	-28.177374
15.500000	-27.846846
15.625000	-27.502384
15.750000	-28.315346
15.875000	-28.021898
16.000000	-27.830406
16.125000	-28.019545
16.250000	-28.066689
16.375000	-28.267727
16.500000	-27.694704
16.625000	-28.177778
16.750000	-28.711119
16.875000	-27.731218
17.000000	-28.350721
17.125000	-28.562208
17.250000	-28.008722
17.375000	-28.442432
17.500000	-28.072741
17.625000	-28.427704
17.750000	-28.887577
17.875000	-27.804037
18.000000	-28.701380
18.125000	-29.047596
18.250000	-27.854259
18.375000	-28.792646
18.500000	-28.613836
18.625000	-28.415474
18.750000	-29.022243
18.875000	-28.110146
19.000000	-28.940203
19.125000	-29.272409
19.250000	-27.944433
19.375000	-29.126188
19.500000	-29.124197
19.625000	-28.339064
19.750000	-29.157892
19.875000	-28.492527
20.000000	-28.988016
20.125000	-29.452280
20.250000	-28.164150
20.375000	-29.425865
20.500000	-29.506233
20.625000	-28.540302
20.750000	-29.349676
20.875000	-28.801174
21.000000	-29.089521
21.125000	-29.558262
21.250000	-28.417889
21.375000	-29.477186
21.500000	-29.685123
21.625000	-28.652260
21.750000	-29.530167
21.875000	-29.096609
22.000000	-29.322250
22.125000	-29.808529
22.250000	-28.656782
22.375000	-29.637974
22.500000	-29.882380
22.625000	-28.995140
22.750000	-29.664270
22.875000	-29.258312
23.000000	-29.480993
23.125000	-29.925901
23.250000	-28.888889
23.375000	-29.605738
23.500000	-30.007099
23.625000	-29.235289
23.750000	-29.756107
23.875000	-29.430695
24.000000	-29.738430
24.125000	-30.175510
24.250000	-29.242203
24.375000	-29.608437
24.500000	-30.067471
24.625000	-29.693583
24.750000	-29.830954
24.875000	-29.679850
25.000000	-29.717216
25.125000	-30.356323
25.250000	-29.681448
25.375000	-29.514189
25.500000	-30.167980
25.625000	-29.897793
25.750000	-30.046972
25.875000	-30.040533
26.000000	-29.649500
26.125000	-30.631382
26.250000	-30.186302
26.375000	-29.570417
26.500000	-30.286011
26.625000	-29.849094
26.750000	-30.340923
26.875000	-30.483192
27.000000	-29.465590
27.125000	-30.611788
27.250000	-30.330229
27.375000	-30.011454
27.500000	-30.634747
27.625000	-29.679564
27.750000	-30.649473
27.875000	-30.755861
28.000000	-29.753504
28.125000	-30.552761
28.250000	-30.230806
28.375000	-30.509544
28.500000	-30.952381
28.625000	-29.870922
28.750000	-30.429409
28.875000	-30.736292
29.000000	-30.330044
29.125000	-30.659513
29.250000	-30.321239
29.375000	-30.419476
29.500000	-31.199379
29.625000	-30.541626
29.750000	-30.351337
29.875000	-30.754526
30.000000	-30.356947
30.125000	-30.990019
30.250000	-30.860874
30.375000	-30.052160
30.500000	-31.145237
30.625000	-30.724102
30.750000	-30.791391
30.875000	-31.139399
31.000000	-30.048370
31.125000	-31.151571
31.250000	-31.148952
31.375000	-30.591236
31.500000	-31.169962
31.625000	-30.446903
31.750000	-30.978195
31.875000	-31.445744
32.000000	-30.644283
32.125000	-30.887413
32.250000	-30.938446
32.375000	-30.835213
32.500000	-31.398258
32.625000	-30.933836
32.750000	-30.553457
32.875000	-31.457775
33.000000	-31.023273
33.125000	-31.372475
33.250000	-31.348703
33.375000	-30.453333
33.500000	-31.480221
33.625000	-31.255932
33.750000	-30.998281
33.875000	-31.582743
34.000000	-30.623329
34.125000	-31.414322
34.250000	-31.657999
34.375000	-31.018324
34.500000	-31.377611
34.625000	-30.990568
34.750000	-31.172873
34.875000	-31.935844
35.000000	-31.323030
35.125000	-31.166698
35.250000	-31.525248
35.375000	-31.043501
35.500000	-31.825989
35.625000	-31.631054
35.750000	-30.915009
35.875000	-31.751589
36.000000	-31.148756
36.125000	-31.703403
36.250000	-32.055851
36.375000	-30.995173
36.500000	-31.758867
36.625000	-31.604828
36.750000	-31.620180
36.875000	-32.063065
37.000000	-31.306965
37.125000	-31.193079
37.250000	-31.910566
37.375000	-31.580936
37.500000	-32.006653
37.625000	-31.945370
37.750000	-31.095837
37.875000	-32.105164
38.000000	-31.678644
38.125000	-31.766266
38.250000	-32.230324
38.375000	-31.258417
38.500000	-32.041531
38.625000	-32.148228
38.750000	-31.873442
38.875000	-32.182709
39.000000	-31.609747
39.125000	-31.505642
39.250000	-32.333183
39.375000	-31.909637
39.500000	-32.081738
39.625000	-32.225643
39.750000	-31.345428
39.875000	-32.467236
40.000000	-32.203804
40.125000	-32.048588
40.250000	-32.531162
40.375000	-31.559879
40.500000	-32.104931
40.625000	-32.438931
40.750000	-32.043537
40.875000	-32.451836
41.000000	-32.120316
41.125000	-31.744827
41.250000	-32.676044
41.375000	-32.200695
41.500000	-32.241417
41.625000	-32.511593
41.750000	-31.642939
41.875000	-32.722290
42.000000	-32.641975
42.125000	-32.370663
42.250000	-32.810127
42.375000	-31.934622
42.500000	-32.157925
42.625000	-32.676514
42.750000	-32.365677
42.875000	-32.725960
43.000000	-32.644711
43.125000	-31.904821
43.250000	-32.958237
43.375000	-32.504684
43.500000	-32.691555
43.625000	-33.031368
43.750000	-32.022690
43.875000	-32.696098
44.000000	-32.803097
44.125000	-32.677483
44.250000	-33.212955
44.375000	-32.623131
44.500000	-32.285313
44.625000	-33.065796
44.750000	-32.583595
44.875000	-33.128815
45.000000	-33.161388
45.125000	-32.323574
45.250000	-33.140614
45.375000	-32.777977
45.500000	-33.152454
45.625000	-33.699333
45.750000	-32.793594
45.875000	-32.879997
46.000000	-33.061577
46.125000	-32.672787
46.250000	-33.585854
46.375000	-33.402065
46.500000	-32.875961
46.625000	-33.597065
46.750000	-32.754166
46.875000	-33.409214
47.000000	-33.668491
47.125000	-33.115753
47.250000	-33.504189
47.375000	-33.269531
47.500000	-32.991489
47.625000	-33.971897
47.750000	-33.512791
47.875000	-33.477787
48.000000	-33.762375
48.125000	-32.850445
48.250000	-33.723534
48.375000	-33.676197
48.500000	-33.604755
48.625000	-34.186031
48.750000	-33.502914
48.875000	-33.471729
49.000000	-34.142445
49.125000	-33.649254
49.250000	-34.357742
49.375000	-34.203960
49.500000	-33.533504
49.625000	-34.178970
49.750000	-33.725178
49.875000	-34.184265
50.000000	-34.844032
50.125000	-34.093449
50.250000	-34.299427
50.375000	-34.283855
50.500000	-33.894939
50.625000	-34.886425
50.750000	-34.636341
50.875000	-34.520027
51.000000	-35.046894
51.125000	-34.131565
51.250000	-34.832470
51.375000	-34.986168
51.500000	-34.645348
51.625000	-35.188240
51.750000	-34.794003
51.875000	-34.519730
52.000000	-35.423763
52.125000	-34.946350
52.250000	-35.669544
52.375000	-35.869465
52.500000	-35.048397
52.625000	-35.742931
52.750000	-35.398376
52.875000	-35.498127
53.000000	-36.381752
53.125000	-35.880901
53.250000	-35.865177
53.375000	-36.325443
53.500000	-35.574535
53.625000	-36.641209
53.750000	-36.509518
53.875000	-36.415768
54.000000	-37.023716
54.125000	-36.466385
54.250000	-36.565048
54.375000	-37.421112
54.500000	-37.101215
54.625000	-38.071678
54.750000	-37.895889
54.875000	-37.336063
55.000000	-37.938473
55.125000	-37.611950
55.250000	-37.989864
55.375000	-38.872623
55.500000	-38.658157
55.625000	-39.068771
55.750000	-38.957909
55.875000	-38.635700
56.000000	-39.880077
56.125000	-39.843643
56.250000	-40.314007
56.375000	-40.878967
56.500000	-40.247334
56.625000	-40.949223
56.750000	-41.181923
56.875000	-41.130508
57.000000	-42.474403
57.125000	-42.312050
57.250000	-42.443710
57.375000	-43.052601
57.500000	-42.582405
57.625000	-44.010544
57.750000	-44.959988
57.875000	-44.972324
58.000000	-46.442867
58.125000	-45.984688
58.250000	-46.334618
58.375000	-47.291698
58.500000	-47.634518
58.625000	-48.992004
58.750000	-50.519821
58.875000	-51.208466
59.000000	-53.974091
59.125000	-53.557018
59.250000	-54.217045
59.375000	-55.800907
59.500000	-58.663734
59.625000	-62.427803
59.750000	-63.706936
59.875000	-62.301556
60.000000	-59.284039
60.125000	-58.549442
60.250000	-57.014790
60.375000	-55.953651
60.500000	-53.613400
60.625000	-52.385365
60.750000	-51.995815
60.875000	-49.811985
61.000000	-49.596344
61.125000	-48.961403
61.250000	-47.726746
61.375000	-47.733246
61.500000	-46.879055
61.625000	-46.105190
61.750000	-46.539471
61.875000	-44.945240
62.000000	-45.497368
62.125000	-45.134327
62.250000	-44.160141
62.375000	-43.676826
62.500000	-42.896851
62.625000	-42.502148
62.750000	-43.290993
62.875000	-42.264198
63.000000	-42.664776
63.125000	-42.313183
63.250000	-41.314259
63.375000	-41.498924
63.500000	-41.003792
63.625000	-40.681629
63.750000	-41.460522
63.875000	-40.698746
64.000000	-41.045242
64.125000	-40.886787
64.250000	-39.617970
64.375000	-39.941429
64.500000	-39.644302
64.625000	-39.681091
64.750000	-40.239174
64.875000	-39.319275
65.000000	-39.300056
65.125000	-39.562653
65.250000	-38.474140
65.375000	-39.111774
65.500000	-38.950619
65.625000	-38.843140
65.750000	-39.418625
65.875000	-38.586113
66.000000	-38.367832
66.125000	-38.792500
66.250000	-37.771839
66.375000	-38.498852
66.500000	-38.344994
66.625000	-38.041126
66.750000	-38.456867
66.875000	-37.799957
67.000000	-37.494026
67.125000	-38.074230
67.250000	-37.368282
67.375000	-38.288826
67.500000	-38.236778
67.625000	-37.603809
67.750000	-37.925499
67.875000	-37.262848
68.000000	-36.987980
68.125000	-37.702415
68.250000	-37.007408
68.375000	-37.653290
68.500000	-37.661373
68.625000	-37.089523
68.750000	-37.473175
68.875000	-36.846169
69.000000	-36.690716
69.125000	-37.507263
69.250000	-36.958603
69.375000	-37.606873
69.500000	-37.686111
69.625000	-36.839012
69.750000	-37.153954
69.875000	-36.625298
70.000000	-36.507622
70.125000	-37.283813
70.250000	-36.714012
70.375000	-37.070930
70.500000	-37.368259
70.625000	-36.535500
70.750000	-37.099525
70.875000	-36.787586
71.000000	-36.546032
71.125000	-37.295807
71.250000	-36.616974
71.375000	-36.865967
71.500000	-37.197197
71.625000	-36.339149
71.750000	-36.834675
71.875000	-36.590897
72.000000	-36.211376
72.125000	-37.053677
72.250000	-36.551643
72.375000	-36.653763
72.500000	-37.064743
72.625000	-36.271770
72.750000	-36.841614
72.875000	-36.757477
73.000000	-36.329659
73.125000	-37.104137
73.250000	-36.520203
73.375000	-36.545292
73.500000	-36.955349
73.625000	-36.080090
73.750000	-36.478580
73.875000	-36.552170
74.000000	-36.150898
74.125000	-37.090279
74.250000	-36.713390
74.375000	-36.705616
74.500000	-37.086670
74.625000	-36.174622
74.750000	-36.456390
74.875000	-36.581760
75.000000	-36.059933
75.125000	-37.086060
75.250000	-36.789989
75.375000	-36.607727
75.500000	-37.088940
75.625000	-36.146797
75.750000	-36.309814
75.875000	-36.541409
76.000000	-36.112408
76.125000	-37.140263
76.250000	-36.902370
76.375000	-36.743042
76.500000	-37.196705
76.625000	-36.251759
76.750000	-36.336483
76.875000	-36.595764
77.000000	-35.998699
77.125000	-36.956352
77.250000	-36.877037
77.375000	-36.595200
77.500000	-37.139774
77.625000	-36.366493
77.750000	-36.403397
77.875000	-36.795719
78.000000	-36.088081
78.125000	-36.910412
78.250000	-36.850845
78.375000	-36.604568
78.500000	-37.283188
78.625000	-36.639584
78.750000	-36.434856
78.875000	-36.869812
79.000000	-36.044369
79.125000	-36.826992
79.250000	-36.843010
79.375000	-36.610806
79.500000	-37.335114
79.625000	-36.763157
79.750000	-36.541718
79.875000	-37.110439
80.000000	-36.215816
80.125000	-36.865227
80.250000	-36.905083
80.375000	-36.559673
80.500000	-37.264473
80.625000	-36.928917
80.750000	-36.627018
80.875000	-37.139812
81.000000	-36.241749
81.125000	-36.770351
81.250000	-36.965717
81.375000	-36.640747
81.500000	-37.440033
81.625000	-37.141323
81.750000	-36.856873
81.875000	-37.448730
82.000000	-36.544060
82.125000	-36.821045
82.250000	-37.067245
82.375000	-36.537567
82.500000	-37.383938
82.625000	-37.136787
82.750000	-36.889297
82.875000	-37.410080
83.000000	-36.669785
83.125000	-36.772194
83.250000	-37.242348
83.375000	-36.579700
83.500000	-37.503132
83.625000	-37.283829
83.750000	-37.010399
83.875000	-37.546288
84.000000	-36.946152
84.125000	-36.847183
84.250000	-37.362267
84.375000	-36.532883
84.500000	-37.329422
84.625000	-37.244076
84.750000	-37.009495
84.875000	-37.666801
85.000000	-37.195152
85.125000	-37.079014
85.250000	-37.601612
85.375000	-36.749577
85.500000	-37.324947
85.625000	-37.336159
85.750000	-37.006592
85.875000	-37.791725
86.000000	-37.312813
86.125000	-37.185383
86.250000	-37.703846
86.375000	-36.909409
86.500000	-37.282162
86.625000	-37.379925
86.750000	-36.948765
86.875000	-37.913040
87.000000	-37.534618
87.125000	-37.543560
87.250000	-38.053589
87.375000	-37.238136
87.500000	-37.401512
87.625000	-37.640263
87.750000	-36.948433
87.875000	-37.839172
88.000000	-37.479759
88.125000	-37.451614
88.250000	-38.082336
88.375000	-37.482174
88.500000	-37.602097
88.625000	-37.948853
88.750000	-37.110126
88.875000	-37.898983
89.000000	-37.591537
89.125000	-37.482540
89.250000	-38.246101
89.375000	-37.702915
89.500000	-37.784828
89.625000	-38.178970
89.750000	-37.409031
89.875000	-37.886875
90.000000	-37.623161
90.125000	-37.321999
90.250000	-38.144775
90.375000	-37.636387
90.500000	-37.941700
90.625000	-38.452835
90.750000	-37.756367
90.875000	-38.153618
91.000000	-38.020481
91.125000	-37.459839
91.250000	-38.246204
91.375000	-37.668587
91.500000	-37.856449
91.625000	-38.475708
91.750000	-37.895779
91.875000	-38.349693
92.000000	-38.357273
92.125000	-37.677967
92.250000	-38.397099
92.375000	-37.834690
92.500000	-37.836178
92.625000	-38.510811
92.750000	-37.894257
92.875000	-38.457771
93.000000	-38.626350
93.125000	-38.101910
93.250000	-38.742764
93.375000	-38.241268
93.500000	-37.854866
93.625000	-38.460953
93.750000	-37.707058
93.875000	-38.231853
94.000000	-38.653286
94.125000	-38.289837
94.250000	-39.051579
94.375000	-38.709305
94.500000	-38.259605
94.625000	-38.828224
94.750000	-38.030727
94.875000	-38.285915
95.000000	-38.649158
95.125000	-38.076416
95.250000	-38.890980
95.375000	-38.754070
95.500000	-38.502415
95.625000	-39.154263
95.750000	-38.509254
95.875000	-38.506927
96.000000	-38.902390
96.125000	-38.139732
96.250000	-38.839596
96.375000	-38.795578
96.500000	-38.570389
96.625000	-39.442383
96.750000	-38.930393
96.875000	-38.879147
97.000000	-39.264240
97.125000	-38.390282
97.250000	-38.818478
97.375000	-38.777866
97.500000	-38.405170
97.625000	-39.350632
97.750000	-38.932755
97.875000	-39.164028
98.000000	-39.715061
98.125000	-38.950844
98.250000	-39.215294
98.375000	-39.128578
98.500000	-38.487617
98.625000	-39.278328
98.750000	-38.929680
98.875000	-38.920322
99.000000	-39.639000
99.125000	-39.026264
99.250000	-39.538589
99.375000	-39.659676
99.500000	-38.961468
99.625000	-39.585110
99.750000	-39.221008
99.875000	-38.951530
100.000000	-39.667767
100.125000	-39.010208
100.250000	-39.475941
100.375000	-39.871849
100.500000	-39.268414
100.625000	-39.933704
100.750000	-39.600525
100.875000	-39.257603
101.000000	-39.854061
101.125000	-39.106113
101.250000	-39.365986
101.375000	-39.886627
101.500000	-39.211433
101.625000	-40.024956
101.750000	-39.807617
101.875000	-39.552402
102.000000	-40.306107
102.125000	-39.766380
102.250000	-39.667580
102.375000	-40.125656
102.500000	-39.195538
102.625000	-39.807320
102.750000	-39.702312
102.875000	-39.466885
103.000000	-40.356110
103.125000	-39.885708
103.250000	-40.055676
103.375000	-40.583042
103.500000	-39.870827
103.625000	-40.219749
103.750000	-40.132710
103.875000	-39.365967
104.000000	-40.227470
104.125000	-39.747856
104.250000	-39.929813
104.375000	-40.644321
104.500000	-40.004147
104.625000	-40.480423
104.750000	-40.641983
104.875000	-40.019531
105.000000	-40.702091
105.125000	-40.113140
105.250000	-39.821339
105.375000	-40.422596
105.500000	-39.877708
105.625000	-40.409145
105.750000	-40.826210
105.875000	-40.260933
106.000000	-41.109383
106.125000	-40.671284
106.250000	-40.338104
106.375000	-40.749557
106.500000	-40.022018
106.625000	-40.318954
106.750000	-40.796803
106.875000	-40.081131
107.000000	-40.980782
107.125000	-40.792591
107.250000	-40.611298
107.375000	-41.264050
107.500000	-40.665451
107.625000	-40.878643
107.750000	-41.219925
107.875000	-40.497101
108.000000	-40.939827
108.125000	-40.727489
108.250000	-40.354408
108.375000	-41.283825
108.500000	-40.727772
108.625000	-40.999405
108.750000	-41.539566
108.875000	-40.955227
109.000000	-41.445858
109.125000	-41.413368
109.250000	-40.650841
109.375000	-41.477108
109.500000	-40.914883
109.625000	-40.844265
109.750000	-41.363369
109.875000	-40.753971
110.000000	-41.409405
110.125000	-41.675373
110.250000	-41.213200
110.375000	-42.054359
110.500000	-41.522301
110.625000	-41.248062
110.750000	-41.652596
110.875000	-40.863480
111.000000	-41.251839
111.125000	-41.517609
111.250000	-40.956707
111.375000	-42.000687
111.500000	-41.701332
111.625000	-41.503017
111.750000	-42.155209
111.875000	-41.569752
112.000000	-41.782467
112.125000	-41.979980
112.250000	-41.207630
112.375000	-41.823444
112.500000	-41.558819
112.625000	-41.244713
112.750000	-42.145462
112.875000	-41.609791
113.000000	-41.964561
113.125000	-42.346832
113.250000	-41.846863
113.375000	-42.321068
113.500000	-42.121418
113.625000	-41.721062
113.750000	-42.377861
113.875000	-41.643864
114.000000	-41.811115
114.125000	-42.272285
114.250000	-41.590084
114.375000	-42.308060
114.500000	-42.287830
114.625000	-41.974213
114.750000	-42.893620
114.875000	-42.347092
115.000000	-42.340733
115.125000	-42.768528
115.250000	-41.905849
115.375000	-42.208618
115.500000	-42.164150
115.625000	-41.815792
115.750000	-42.667080
115.875000	-42.203705
116.000000	-42.537926
116.125000	-43.135876
116.250000	-42.357079
116.375000	-42.909142
116.500000	-42.963329
116.625000	-42.314247
116.750000	-42.988659
116.875000	-42.540005
117.000000	-42.285423
117.125000	-42.864513
117.250000	-42.109623
117.375000	-42.811699
117.500000	-43.172386
117.625000	-42.656147
117.750000	-43.402821
117.875000	-43.008060
118.000000	-42.905411
118.125000	-43.514374
118.250000	-42.768238
118.375000	-42.949417
118.500000	-43.241158
118.625000	-42.446129
118.750000	-43.140957
118.875000	-42.860081
119.000000	-42.747574
119.125000	-43.564445
119.250000	-42.980476
119.375000	-43.586475
119.500000	-39.390347
119.625000	-40.608692
119.750000	-46.172012
119.875000	-43.190639
120.000000	-42.826378
120.125000	-43.490467
120.250000	-42.968452
120.375000	-43.169243
120.500000	-43.714077
120.625000	-43.008839
120.750000	-43.703308
120.875000	-43.705154
121.000000	-43.431812
121.125000	-44.204086
121.250000	-43.633301
121.375000	-43.571922
121.500000	-44.005524
121.625000	-43.248611
121.750000	-43.598873
121.875000	-43.720264
122.000000	-43.134903
122.125000	-44.078804
122.250000	-43.539494
122.375000	-43.655590
122.500000	-44.284077
122.625000	-43.784828
122.750000	-44.278137
122.875000	-44.560833
123.000000	-43.930260
123.125000	-44.505291
123.250000	-43.854698
123.375000	-43.625435
123.500000	-44.180016
123.625000	-43.522564
123.750000	-43.959900
123.875000	-44.487812
124.000000	-43.898678
124.125000	-44.662685
124.250000	-44.404148
124.375000	-44.283493
124.500000	-44.903782
124.625000	-44.247627
124.750000	-44.365009
124.875000	-44.697926
125.000000	-43.964939
125.125000	-44.584839
125.250000	-44.345974
125.375000	-43.833492
125.500000	-44.803394
125.625000	-44.174767
125.750000	-44.576485
125.875000	-45.124489
126.000000	-44.549309
126.125000	-45.046627
126.250000	-45.061245
126.375000	-44.570942
126.500000	-45.335415
126.625000	-44.675919
126.750000	-44.585842
126.875000	-44.892719
127.000000	-44.209785
127.125000	-44.672291
127.250000	-44.899216
127.375000	-44.658794
127.500000	-45.611794
127.625000	-45.025379
127.750000	-45.225693
127.875000	-45.567543
128.000000	-44.920799
128.125000	-45.259979
128.250000	-45.431583
128.375000	-44.801918
128.500000	-45.510303
128.625000	-44.970581
128.750000	-44.863476
128.875000	-45.415939
129.000000	-44.694370
129.125000	-45.376606
129.250000	-45.586765
129.375000	-45.148022
129.500000	-46.059551
129.625000	-45.726196
129.750000	-45.439892
129.875000	-46.142647
130.000000	-45.346760
130.125000	-45.537636
130.250000	-45.692242
130.375000	-44.925476
130.500000	-45.532192
130.625000	-45.361347
130.750000	-45.128834
130.875000	-45.969952
131.000000	-45.409721
131.125000	-46.035946
131.250000	-46.264862
131.375000	-45.718704
131.500000	-46.323765
131.625000	-46.111034
131.750000	-45.637699
131.875000	-46.439571
132.000000	-45.758904
132.125000	-45.816353
132.250000	-46.230801
132.375000	-45.405582
132.500000	-45.833794
132.625000	-45.857101
132.750000	-45.647915
132.875000	-46.580666
133.000000	-46.214863
133.125000	-46.452526
133.250000	-46.924343
133.375000	-46.180740
133.500000	-46.650860
133.625000	-46.655930
133.750000	-45.941917
133.875000	-46.624451
134.000000	-46.113617
134.125000	-45.957340
134.250000	-46.574642
134.375000	-45.868305
134.500000	-46.476341
134.625000	-46.662392
134.750000	-46.190384
134.875000	-47.144627
135.000000	-46.695847
135.125000	-46.551010
135.250000	-47.330723
135.375000	-46.706276
135.500000	-46.977409
135.625000	-47.159107
135.750000	-46.412182
135.875000	-46.818008
136.000000	-46.367931
136.125000	-46.212147
136.250000	-46.967117
136.375000	-46.468704
136.500000	-46.872910
136.625000	-47.306576
136.750000	-46.677326
136.875000	-47.424114
137.000000	-47.252399
137.125000	-46.963596
137.250000	-47.649235
137.375000	-47.034771
137.500000	-47.249805
137.625000	-47.572849
137.750000	-46.766735
137.875000	-47.264050
138.000000	-47.087132
138.125000	-46.629307
138.250000	-47.442169
138.375000	-46.976624
138.500000	-47.254025
138.625000	-47.676476
138.750000	-47.096954
138.875000	-47.821373
139.000000	-47.970104
139.125000	-47.517860
139.250000	-48.333218
139.375000	-47.660351
139.500000	-47.480526
139.625000	-47.868542
139.750000	-47.195580
139.875000	-47.631401
140.000000	-47.751656
140.125000	-47.119217
140.250000	-48.027599
140.375000	-47.467751
140.500000	-47.553791
140.625000	-48.101460
140.750000	-47.604137
140.875000	-48.211792
141.000000	-48.461502
141.125000	-47.899418
141.250000	-48.698387
141.375000	-48.198574
141.500000	-47.806950
141.625000	-48.367294
141.750000	-47.639153
141.875000	-48.056160
142.000000	-48.271381
142.125000	-47.531384
142.250000	-48.280354
142.375000	-47.993843
142.500000	-47.738144
142.625000	-48.672363
142.750000	-48.114559
142.875000	-48.468929
143.000000	-48.771160
143.125000	-48.225517
143.250000	-48.907513
143.375000	-48.768494
143.500000	-48.276665
143.625000	-49.116337
143.750000	-48.370724
143.875000	-48.621197
144.000000	-48.719837
144.125000	-47.987072
144.250000	-48.479233
144.375000	-48.529240
144.500000	-48.172443
144.625000	-49.145287
144.750000	-48.539253
144.875000	-48.710152
145.000000	-49.056778
145.125000	-48.490856
145.250000	-49.204208
145.375000	-49.369541
145.500000	-48.894432
145.625000	-49.571224
145.750000	-49.018826
145.875000	-48.855717
146.000000	-49.312119
146.125000	-48.588356
146.250000	-48.911442
146.375000	-49.043320
146.500000	-48.434631
146.625000	-49.209587
146.750000	-48.886906
146.875000	-48.894104
147.000000	-49.551044
147.125000	-48.811012
147.250000	-49.528908
147.375000	-49.852043
147.500000	-49.377895
147.625000	-49.948158
147.750000	-49.663361
147.875000	-49.293903
148.000000	-49.981194
148.125000	-49.208477
148.250000	-49.495289
148.375000	-49.704082
148.500000	-48.945339
148.625000	-49.374676
148.750000	-49.129948
148.875000	-48.942001
149.000000	-49.970200
149.125000	-49.376320
149.250000	-49.848167
149.375000	-50.237621
149.500000	-49.661427
149.625000	-50.294117
149.750000	-50.181286
149.875000	-49.856544
150.000000	-50.681431
150.125000	-50.066780
150.250000	-49.961132
150.375000	-50.255066
150.500000	-49.373203
150.625000	-49.942070
150.750000	-49.873016
150.875000	-49.436317
151.000000	-50.267395
151.125000	-49.716301
151.250000	-49.848526
151.375000	-50.403702
151.500000	-49.836029
151.625000	-50.572784
151.750000	-50.760941
151.875000	-50.212021
152.000000	-50.896034
152.125000	-50.316956
152.250000	-50.391747
152.375000	-50.886299
152.500000	-50.140404
152.625000	-50.428158
152.750000	-50.710503
152.875000	-50.125076
153.000000	-50.749096
153.125000	-50.266495
153.250000	-49.987545
153.375000	-50.732937
153.500000	-50.088398
153.625000	-50.612732
153.750000	-50.935825
153.875000	-50.330894
154.000000	-51.019318
154.125000	-50.642860
154.250000	-50.465431
154.375000	-51.391190
154.500000	-50.953739
154.625000	-51.373344
154.750000	-51.505642
154.875000	-50.711105
155.000000	-51.178257
155.125000	-51.065559
155.250000	-50.531090
155.375000	-51.334946
155.500000	-50.535168
155.625000	-50.767227
155.750000	-51.048859
155.875000	-50.339794
156.000000	-50.923111
156.125000	-51.034779
156.250000	-50.827202
156.375000	-51.873386
156.500000	-51.292053
156.625000	-51.476879
156.750000	-51.923691
156.875000	-51.280411
157.000000	-51.905739
157.125000	-51.990238
157.250000	-51.321503
157.375000	-52.075367
157.500000	-51.347775
157.625000	-51.143021
157.750000	-51.583878
157.875000	-50.926022
158.000000	-51.457500
158.125000	-51.593010
158.250000	-51.026787
158.375000	-51.788322
158.500000	-51.400158
158.625000	-51.412701
158.750000	-52.107841
158.875000	-51.418373
159.000000	-51.982300
159.125000	-52.264050
159.250000	-51.867332
159.375000	-52.495342
159.500000	-52.054958
159.625000	-51.719570
159.750000	-52.491875
159.875000	-51.806313
160.000000	-52.257717
160.125000	-52.345875
160.250000	-51.588699
160.375000	-52.102310
160.500000	-51.897766
160.625000	-51.577736
160.750000	-52.372658
160.875000	-51.669392
161.000000	-52.105343
161.125000	-52.335194
161.250000	-51.628620
161.375000	-52.204983
161.500000	-52.271404
161.625000	-52.146290
161.750000	-53.167099
161.875000	-52.489723
162.000000	-52.660408
162.125000	-53.003914
162.250000	-52.377430
162.375000	-52.917580
162.500000	-52.849579
162.625000	-52.175323
162.750000	-53.007687
162.875000	-52.407364
163.000000	-52.312740
163.125000	-52.592247
163.250000	-51.812954
163.375000	-52.443981
163.500000	-52.667732
163.625000	-52.201565
163.750000	-52.950634
163.875000	-52.533943
164.000000	-52.653366
164.125000	-53.421333
164.250000	-52.769272
164.375000	-53.265877
164.500000	-53.438240
164.625000	-52.891445
164.750000	-53.639664
164.875000	-53.153603
165.000000	-52.841175
165.125000	-53.454880
165.250000	-52.820896
165.375000	-53.339409
165.500000	-53.449318
165.625000	-52.765869
165.750000	-53.231106
165.875000	-52.920807
166.000000	-52.675159
166.125000	-53.549747
166.250000	-52.870312
166.375000	-53.112652
166.500000	-53.306095
166.625000	-52.657463
166.750000	-53.311672
166.875000	-53.236645
167.000000	-53.150246
167.125000	-54.150986
167.250000	-53.527954
167.375000	-53.785755
167.500000	-54.077187
167.625000	-53.510891
167.750000	-54.082584
167.875000	-54.051121
168.000000	-53.536823
168.125000	-54.289745
168.250000	-53.470905
168.375000	-53.450981
168.500000	-53.846073
168.625000	-53.064266
168.750000	-53.565605
168.875000	-53.502762
169.000000	-53.127129
169.125000	-54.016216
169.250000	-53.523861
169.375000	-53.566418
169.500000	-54.092899
169.625000	-53.379818
169.750000	-54.179718
169.875000	-54.516994
170.000000	-54.025101
170.125000	-54.575546
170.250000	-54.073505
170.375000	-54.106155
170.500000	-54.772636
170.625000	-54.053391
170.750000	-54.478844
170.875000	-54.635506
171.000000	-54.150597
171.125000	-54.708126
171.250000	-54.303413
171.375000	-53.922092
171.500000	-54.610958
171.625000	-53.826595
171.750000	-54.374771
171.875000	-54.551418
172.000000	-53.735588
172.125000	-54.171520
172.250000	-53.874588
172.375000	-53.853291
172.500000	-55.023441
172.625000	-54.446117
172.750000	-54.668289
172.875000	-54.820442
173.000000	-54.315342
173.125000	-55.246235
173.250000	-55.323662
173.375000	-54.916077
173.500000	-55.635517
173.625000	-54.797825
173.750000	-55.050560
173.875000	-55.328369
174.000000	-54.610085
174.125000	-54.972977
174.250000	-54.970444
174.375000	-54.548412
174.500000	-55.305943
174.625000	-54.646408
174.750000	-54.655426
174.875000	-55.097900
175.000000	-54.289028
175.125000	-54.913059
175.250000	-55.075787
175.375000	-54.637848
175.500000	-55.333401
175.625000	-54.737381
175.750000	-54.781368
175.875000	-55.471424
176.000000	-54.890854
176.125000	-55.536774
176.250000	-55.742645
176.375000	-55.318653
176.500000	-56.155357
176.625000	-55.749321
176.750000	-55.578163
176.875000	-56.217579
177.000000	-55.486763
177.125000	-55.931675
177.250000	-56.085369
177.375000	-55.414150
177.500000	-55.718174
177.625000	-55.253956
177.750000	-54.867840
177.875000	-55.816261
178.000000	-55.149189
178.125000	-55.505806
178.250000	-55.621117
178.375000	-54.880184
178.500000	-55.465252
178.625000	-55.421917
178.750000	-55.423729
178.875000	-56.277748
179.000000	-55.530060
179.125000	-55.729946
179.250000	-55.557060
179.375000	-55.010952
179.500000	-56.570232
179.625000	-56.240406
179.750000	-55.897312
179.875000	-56.794304
180.000000	-56.208973
180.125000	-56.481052
180.250000	-56.772926
180.375000	-55.985352
180.500000	-56.424484
180.625000	-56.484612
180.750000	-56.019756
180.875000	-56.745384
181.000000	-56.063011
181.125000	-55.792095
181.250000	-56.184807
181.375000	-55.464115
181.500000	-56.072918
181.625000	-56.232861
181.750000	-55.784771
181.875000	-56.411045
182.000000	-55.891479
182.125000	-55.935181
182.250000	-56.671478
182.375000	-56.052826
182.500000	-56.582355
182.625000	-56.810345
182.750000	-56.402000
182.875000	-57.133846
183.000000	-56.727837
183.125000	-56.525043
183.250000	-57.356884
183.375000	-56.749809
183.500000	-57.333885
183.625000	-57.455318
183.750000	-56.928314
183.875000	-57.226723
184.000000	-57.016369
184.125000	-56.640282
184.250000	-57.540810
184.375000	-56.911533
184.500000	-57.027191
184.625000	-56.965473
184.750000	-56.171028
184.875000	-56.748299
185.000000	-56.701191
185.125000	-56.435638
185.250000	-57.112278
185.375000	-56.355953
185.500000	-56.544296
185.625000	-57.073589
185.750000	-56.634598
185.875000	-57.264000
186.000000	-57.189213
186.125000	-56.702595
186.250000	-57.682255
186.375000	-57.190304
186.500000	-57.467503
186.625000	-57.808537
186.750000	-57.022770
186.875000	-57.558048
187.000000	-57.743652
187.125000	-57.581005
187.250000	-58.505245
187.375000	-57.878998
187.500000	-57.702637
187.625000	-58.119778
187.750000	-57.350342
187.875000	-57.998837
188.000000	-58.159557
188.125000	-57.445400
188.250000	-57.780628
188.375000	-57.202003
188.500000	-57.048634
188.625000	-57.853230
188.750000	-57.096539
188.875000	-57.459217
189.000000	-57.653820
189.125000	-57.096119
189.250000	-57.854866
189.375000	-57.581089
189.500000	-57.228367
189.625000	-58.035496
189.750000	-57.301849
189.875000	-57.954922
190.000000	-58.169098
190.125000	-57.635635
190.250000	-58.261040
190.375000	-58.027187
190.500000	-57.896412
190.625000	-58.838272
190.750000	-58.274410
190.875000	-58.527885
191.000000	-58.744747
191.125000	-58.162189
191.250000	-58.707062
191.375000	-58.751198
191.500000	-58.502472
191.625000	-59.163551
191.750000	-58.307644
191.875000	-58.464478
192.000000	-58.749115
192.125000	-58.040703
192.250000	-58.408154
192.375000	-58.348412
192.500000	-57.877186
192.625000	-58.591774
192.750000	-58.070774
192.875000	-57.985737
193.000000	-58.488113
193.125000	-57.703873
193.250000	-58.459503
193.375000	-58.606544
193.500000	-58.030724
193.625000	-58.613335
193.750000	-58.008511
193.875000	-57.933933
194.000000	-58.706951
194.125000	-58.308979
194.250000	-58.785488
194.375000	-58.918087
194.500000	-58.537342
194.625000	-59.389820
194.750000	-59.138172
194.875000	-59.024467
195.000000	-59.741772
195.125000	-58.972656
195.250000	-59.487347
195.375000	-59.651154
195.500000	-59.141571
195.625000	-59.669579
195.750000	-59.368099
195.875000	-58.942799
196.000000	-59.814529
196.125000	-59.141300
196.250000	-59.580757
196.375000	-59.709824
196.500000	-58.822998
196.625000	-59.306095
196.750000	-59.132488
196.875000	-58.868187
197.000000	-59.544064
197.125000	-58.846615
197.250000	-58.939857
197.375000	-59.188110
197.500000	-58.570930
197.625000	-59.265911
197.750000	-59.149998
197.875000	-58.656269
198.000000	-59.379822
198.125000	-58.845699
198.250000	-59.130905
198.375000	-59.651840
198.500000	-59.048584
198.625000	-59.583317
198.750000	-59.740608
198.875000	-59.436050
199.000000	-60.147964
199.125000	-59.703861
199.250000	-59.680328
199.375000	-60.249809
199.500000	-59.590515
199.625000	-60.290375
199.750000	-60.555756
199.875000	-60.007416
200.000000	-60.693836
200.125000	-60.157997
200.250000	-60.239506
200.375000	-60.919121
200.500000	-60.201859
200.625000	-60.523861
200.750000	-60.594337
200.875000	-59.855621
201.000000	-60.511917
201.125000	-60.011116
201.250000	-59.706474
201.375000	-60.374096
201.500000	-59.562019
201.625000	-60.016060
201.750000	-60.249592
201.875000	-59.837681
202.000000	-60.159615
202.125000	-59.764122
202.250000	-59.417679
202.375000	-60.295643
202.500000	-59.834541
202.625000	-59.895401
202.750000	-60.131401
202.875000	-59.482334
203.000000	-60.034466
203.125000	-59.987526
203.250000	-59.798340
203.375000	-60.707336
203.500000	-60.110153
203.625000	-60.211578
203.750000	-60.775604
203.875000	-60.331551
204.000000	-61.020283
204.125000	-61.115829
204.250000	-60.463066
204.375000	-61.426548
204.500000	-60.841480
204.625000	-61.012531
204.750000	-61.386272
204.875000	-60.581650
205.000000	-61.180115
205.125000	-61.385948
205.250000	-61.206810
205.375000	-61.871815
205.500000	-61.403225
205.625000	-61.185299
205.750000	-61.776749
205.875000	-61.012108
206.000000	-61.332870
206.125000	-61.345947
206.250000	-60.692436
206.375000	-61.357952
206.500000	-60.882835
206.625000	-60.805084
206.750000	-61.401272
206.875000	-60.519424
207.000000	-60.671146
207.125000	-60.757763
207.250000	-60.366623
207.375000	-61.271011
207.500000	-61.072163
207.625000	-60.482201
207.750000	-61.152435
207.875000	-60.472733
208.000000	-61.092728
208.125000	-61.318001
208.250000	-60.542316
208.375000	-61.006992
208.500000	-60.704506
208.625000	-60.470230
208.750000	-61.535580
208.875000	-61.144768
209.000000	-61.673470
209.125000	-61.975163
209.250000	-61.025997
209.375000	-61.785988
209.500000	-61.720207
209.625000	-61.652126
209.750000	-62.416065
209.875000	-61.648014
210.000000	-61.929276
210.125000	-62.439869
210.250000	-61.799915
210.375000	-62.435768
210.500000	-62.415958
210.625000	-62.122822
210.750000	-62.875408
210.875000	-62.330055
211.000000	-62.176540
211.125000	-62.747192
211.250000	-62.113670
211.375000	-62.805790
211.500000	-62.804245
211.625000	-62.116199
211.750000	-62.485222
211.875000	-61.913357
212.000000	-61.706165
212.125000	-62.501404
212.250000	-61.902546
212.375000	-62.339935
212.500000	-62.228058
212.625000	-61.289108
212.750000	-62.109856
212.875000	-61.883053
213.000000	-61.853237
213.125000	-62.565685
213.250000	-61.774109
213.375000	-61.673889
213.500000	-61.948639
213.625000	-61.416817
213.750000	-62.268604
213.875000	-61.853378
214.000000	-61.469185
214.125000	-62.148338
214.250000	-61.490421
214.375000	-62.016399
214.500000	-62.464291
214.625000	-61.739349
214.750000	-62.525730
214.875000	-62.148197
215.000000	-61.953346
215.125000	-62.903847
215.250000	-62.415009
215.375000	-62.570332
215.500000	-62.848083
215.625000	-62.155689
215.750000	-62.920067
215.875000	-63.043671
216.000000	-62.706104
216.125000	-63.519333
216.250000	-62.984985
216.375000	-63.402142
216.500000	-63.751812
216.625000	-63.018909
216.750000	-63.603611
216.875000	-63.732193
217.000000	-63.286865
217.125000	-64.169983
217.250000	-63.517544
217.375000	-63.453724
217.500000	-63.905670
217.625000	-63.300827
217.750000	-63.895626
217.875000	-64.021507
218.000000	-63.281181
218.125000	-63.919907
218.250000	-63.380135
218.375000	-63.263710
218.500000	-63.906376
218.625000	-63.353268
218.750000	-63.554829
218.875000	-63.664219
219.000000	-62.794220
219.125000	-63.484642
219.250000	-63.135323
219.375000	-62.959217
219.500000	-63.531559
219.625000	-62.605564
219.750000	-63.024258
219.875000	-63.301323
220.000000	-62.809437
220.125000	-63.334702
220.250000	-62.862026
220.375000	-62.281017
220.500000	-63.351547
220.625000	-62.657745
220.750000	-62.966640
220.875000	-63.211445
221.000000	-62.410511
221.125000	-62.845375
221.250000	-62.838245
221.375000	-62.862186
221.500000	-63.729839
221.625000	-62.975887
221.750000	-62.895599
221.875000	-63.381279
222.000000	-62.984505
222.125000	-63.839134
222.250000	-63.887901
222.375000	-63.234154
222.500000	-63.946720
222.625000	-63.460033
222.750000	-63.803341
222.875000	-64.413506
223.000000	-63.476593
223.125000	-64.193657
223.250000	-64.318123
223.375000	-64.012398
223.500000	-64.749779
223.625000	-64.347580
223.750000	-64.441254
223.875000	-65.152145
224.000000	-64.288620
224.125000	-64.884048
224.250000	-64.990479
224.375000	-64.432846
224.500000	-64.970665
224.625000	-64.754593
224.750000	-64.840752
224.875000	-65.675774
225.000000	-64.966858
225.125000	-65.144569
225.250000	-65.371635
225.375000	-64.984360
225.500000	-65.696121
225.625000	-65.436150
225.750000	-64.802185
225.875000	-65.430977
226.000000	-64.732918
226.125000	-65.320969
226.250000	-65.789444
226.375000	-64.824295
226.500000	-65.034706
226.625000	-64.431259
226.750000	-64.571327
226.875000	-65.488663
227.000000	-65.138641
227.125000	-64.805092
227.250000	-64.984314
227.375000	-64.021492
227.500000	-64.782410
227.625000	-64.734352
227.750000	-64.420082
227.875000	-65.044197
228.000000	-64.291229
228.125000	-64.151276
228.250000	-64.777542
228.375000	-64.331779
228.500000	-64.776627
228.625000	-64.597725
228.750000	-63.868004
228.875000	-64.453743
229.000000	-64.040092
229.125000	-64.358856
229.250000	-64.868454
229.375000	-63.985428
229.500000	-64.566917
229.625000	-64.524536
229.750000	-64.149002
229.875000	-64.704498
230.000000	-64.214310
230.125000	-64.029022
230.250000	-64.510193
230.375000	-64.078300
230.500000	-64.500824
230.625000	-64.913864
230.750000	-64.266609
230.875000	-65.142891
231.000000	-64.723145
231.125000	-64.547478
231.250000	-64.990616
231.375000	-64.406517
231.500000	-64.796837
231.625000	-65.350525
231.750000	-64.905708
231.875000	-65.629074
232.000000	-65.180420
232.125000	-65.015961
232.250000	-65.651970
232.375000	-65.065605
232.500000	-65.523933
232.625000	-65.811592
232.750000	-65.165138
232.875000	-65.832077
233.000000	-65.825638
233.125000	-65.607689
233.250000	-66.451248
233.375000	-65.924866
233.500000	-66.265198
233.625000	-66.552010
233.750000	-66.041733
233.875000	-66.829117
234.000000	-67.193756
234.125000	-66.214859
234.250000	-66.842239
234.375000	-66.093147
234.500000	-66.709862
234.625000	-67.323074
234.750000	-66.868805
234.875000	-67.311485
235.000000	-67.532150
235.125000	-67.007729
235.250000	-67.774849
235.375000	-67.170555
235.500000	-66.953430
235.625000	-67.595291
235.750000	-66.650360
235.875000	-67.021866
236.000000	-67.448456
236.125000	-67.359596
236.250000	-68.220390
236.375000	-67.650024
236.500000	-67.098938
236.625000	-67.541374
236.750000	-67.016983
236.875000	-67.360641
237.000000	-67.484383
237.125000	-66.792252
237.250000	-67.441818
237.375000	-67.294342
237.500000	-67.126465
237.625000	-67.652870
237.750000	-66.501053
237.875000	-66.931450
238.000000	-67.156281
238.125000	-66.799210
238.250000	-66.840752
238.375000	-66.748001
238.500000	-66.378922
238.625000	-67.524887
238.750000	-66.815514
238.875000	-67.206306
239.000000	-65.470161
239.125000	-61.476711
239.250000	-64.246605
239.375000	-66.453026
239.500000	-66.356171
239.625000	-66.988663
239.750000	-66.343079
239.875000	-66.206238
240.000000	-66.848618
240.125000	-65.858315
240.250000	-66.924805
240.375000	-66.609352
240.500000	-65.676453
240.625000	-66.276176
240.750000	-65.966492
240.875000	-66.036812
241.000000	-66.687073
241.125000	-65.873314
241.250000	-66.118195
241.375000	-66.043129
241.500000	-65.808128
241.625000	-66.280144
241.750000	-65.900856
241.875000	-65.723366
242.000000	-66.339554
242.125000	-65.780685
242.250000	-66.036705
242.375000	-66.224632
242.500000	-65.453743
242.625000	-66.408783
242.750000	-65.873802
242.875000	-65.867477
243.000000	-66.401070
243.125000	-65.951538
243.250000	-65.944656
243.375000	-66.077522
243.500000	-65.435829
243.625000	-66.551773
243.750000	-66.221069
243.875000	-66.031868
244.000000	-66.697540
244.125000	-65.934090
244.250000	-66.386856
244.375000	-66.796310
244.500000	-65.935646
244.625000	-66.358589
244.750000	-66.087128
244.875000	-65.903267
245.000000	-66.788979
245.125000	-66.473526
245.250000	-66.420387
245.375000	-66.709099
245.500000	-65.834625
245.625000	-66.625458
245.750000	-66.506668
245.875000	-65.911812
246.000000	-66.734100
246.125000	-66.433151
246.250000	-66.685326
246.375000	-67.183640
246.500000	-66.578148
246.625000	-67.010902
246.750000	-66.766663
246.875000	-66.304115
247.000000	-67.344978
247.125000	-66.969154
247.250000	-67.222809
247.375000	-67.544617
247.500000	-66.728592
247.625000	-67.584129
247.750000	-67.841774
247.875000	-67.206352
248.000000	-67.746544
248.125000	-67.038765
248.250000	-67.025246
248.375000	-67.505486
248.500000	-67.197800
248.625000	-67.779861
248.750000	-68.172668
248.875000	-67.548332
249.000000	-67.963005
249.125000	-67.468872
249.250000	-67.900650
249.375000	-68.231239
249.500000	-67.476799
249.625000	-67.827171
249.750000	-68.343559
249.875000	-68.136063
250.000000	-68.924988
250.125000	-68.678818
250.250000	-68.554901
250.375000	-68.696526
250.500000	-68.137955
250.625000	-68.414749
250.750000	-68.678108
250.875000	-68.565063
251.000000	-68.958023
251.125000	-68.786789
251.250000	-68.952629
251.375000	-69.454094
251.500000	-68.846954
251.625000	-68.892220
251.750000	-68.760971
251.875000	-68.786064
252.000000	-69.507805
252.125000	-69.776840
252.250000	-69.354172
252.375000	-69.530754
252.500000	-68.801170
252.625000	-69.729515
252.750000	-70.031204
252.875000	-69.515862
253.000000	-69.083916
253.125000	-68.876259
253.250000	-69.002090
253.375000	-70.257317
253.500000	-70.255806
253.625000	-70.138390
253.750000	-69.962181
253.875000	-69.377831
254.000000	-70.031837
254.125000	-69.806442
254.250000	-70.046951
254.375000	-69.963463
254.500000	-69.604828
254.625000	-69.930656
254.750000	-70.535141
254.875000	-70.296394
255.000000	-70.609787
255.125000	-69.992043
255.250000	-69.731911
255.375000	-69.762619
255.500000	-69.916847
255.625000	-70.142754
255.750000	-70.255157
255.875000	-70.020203
