Frequency (Hz)	Level (dB)
0.125000	-31.860069
0.250000	-66.080353
0.375000	-66.624542
0.500000	-65.770050
0.625000	-68.406693
0.750000	-80.726967
0.875000	-68.006348
1.000000	-62.809589
1.125000	-69.505478
1.250000	-68.982010
1.375000	-63.884766
1.500000	-67.812302
1.625000	-58.651623
1.750000	-62.753304
1.875000	-68.833817
2.000000	-64.237335
2.125000	-62.708576
2.250000	-66.362488
2.375000	-66.519226
2.500000	-62.566002
2.625000	-74.193138
2.750000	-58.841961
2.875000	-62.320732
3.000000	-60.409470
3.125000	-62.275810
3.250000	-64.205368
3.375000	-64.918076
3.500000	-66.152153
3.625000	-69.943657
3.750000	-70.441277
3.875000	-67.460022
4.000000	-67.354813
4.125000	-70.036545
4.250000	-69.302963
4.375000	-68.146622
4.500000	-74.826065
4.625000	-65.062752
4.750000	-65.758430
4.875000	-65.274498
5.000000	-77.202904
5.125000	-75.409378
5.250000	-69.191536
5.375000	-67.614639
5.500000	-64.714600
5.625000	-63.606537
5.750000	-76.584778
5.875000	-70.217117
6.000000	-72.889992
6.125000	-66.077965
6.250000	-66.513420
6.375000	-70.350136
6.500000	-68.109962
6.625000	-68.885689
6.750000	-66.624138
6.875000	-69.252884
7.000000	-70.665161
7.125000	-66.689384
7.250000	-69.990822
7.375000	-62.015274
7.500000	-63.530006
7.625000	-68.895164
7.750000	-63.449532
7.875000	-61.087002
8.000000	-63.388741
8.125000	-72.447311
8.250000	-66.969398
8.375000	-62.523140
8.500000	-67.839592
8.625000	-73.444778
8.750000	-72.356018
8.875000	-72.609764
9.000000	-68.517967
9.125000	-69.325027
9.250000	-70.257324
9.375000	-71.204849
9.500000	-71.396202
9.625000	-71.221390
9.750000	-76.076942
9.875000	-78.805321
10.000000	-80.657562
10.125000	-72.794220
10.250000	-73.834679
10.375000	-79.890663
10.500000	-73.198662
10.625000	-74.738564
10.750000	-72.825333
10.875000	-70.294609
11.000000	-69.807289
11.125000	-72.125587
11.250000	-75.216278
11.375000	-87.430183
11.500000	-75.408676
11.625000	-68.428902
11.750000	-68.786018
11.875000	-67.739197
12.000000	-74.936928
12.125000	-72.418724
12.250000	-75.296715
12.375000	-81.285515
12.500000	-78.549606
12.625000	-76.223671
12.750000	-72.624496
12.875000	-68.365211
13.000000	-66.463341
13.125000	-70.842728
13.250000	-70.632530
13.375000	-67.694214
13.500000	-64.513397
13.625000	-65.426430
13.750000	-76.537415
13.875000	-76.141205
14.000000	-72.253708
14.125000	-75.515778
14.250000	-69.274498
14.375000	-80.170113
14.500000	-69.215027
14.625000	-69.232819
14.750000	-68.682159
14.875000	-64.763710
15.000000	-65.379288
15.125000	-73.700020
15.250000	-76.333046
15.375000	-68.493637
15.500000	-66.160965
15.625000	-74.805405
15.750000	-72.714989
15.875000	-70.383659
16.000000	-70.126961
16.125000	-69.410553
16.250000	-73.315407
16.375000	-69.528427
16.500000	-68.750809
16.625000	-80.950005
16.750000	-68.904297
16.875000	-72.368042
17.000000	-80.165321
17.125000	-68.433495
17.250000	-65.830589
17.375000	-77.217690
17.500000	-70.901031
17.625000	-72.885063
17.750000	-73.278526
17.875000	-67.966728
18.000000	-70.048866
18.125000	-74.527672
18.250000	-81.103432
18.375000	-74.461288
18.500000	-73.264435
18.625000	-79.019417
18.750000	-83.177956
18.875000	-69.674339
19.000000	-71.600380
19.125000	-70.060738
19.250000	-68.903687
19.375000	-70.880943
19.500000	-72.478622
19.625000	-73.180214
19.750000	-67.470589
19.875000	-64.808426
20.000000	-65.047516
20.125000	-72.024200
20.250000	-78.973969
20.375000	-76.198021
20.500000	-71.554543
20.625000	-72.876846
20.750000	-73.561417
20.875000	-74.734451
21.000000	-76.473480
21.125000	-74.292679
21.250000	-67.725449
21.375000	-69.407082
21.500000	-76.042374
21.625000	-76.121315
21.750000	-76.667053
21.875000	-73.845192
22.000000	-67.434883
22.125000	-69.679626
22.250000	-99.165459
22.375000	-73.724770
22.500000	-69.051201
22.625000	-69.720139
22.750000	-72.622185
22.875000	-71.126427
23.000000	-75.185768
23.125000	-86.855461
23.250000	-82.790306
23.375000	-85.983109
23.500000	-70.352036
23.625000	-67.081306
23.750000	-72.173790
23.875000	-76.609390
24.000000	-74.648369
24.125000	-83.596832
24.250000	-81.004829
24.375000	-73.822906
24.500000	-72.013977
24.625000	-70.144203
24.750000	-66.941040
24.875000	-70.511337
25.000000	-68.803406
25.125000	-72.970413
25.250000	-72.261055
25.375000	-83.068756
25.500000	-75.701088
25.625000	-83.979759
25.750000	-79.638969
25.875000	-72.616714
26.000000	-72.677299
26.125000	-85.686249
26.250000	-75.611229
26.375000	-66.260719
26.500000	-68.561752
26.625000	-79.718803
26.750000	-76.581306
26.875000	-75.390923
27.000000	-73.848801
27.125000	-89.165665
27.250000	-74.575943
27.375000	-67.952164
27.500000	-70.314163
27.625000	-88.260437
27.750000	-78.201752
27.875000	-76.415871
28.000000	-68.659256
28.125000	-68.389061
28.250000	-72.263046
28.375000	-76.316200
28.500000	-75.572113
28.625000	-73.501259
28.750000	-73.192284
28.875000	-68.531082
29.000000	-68.279633
29.125000	-69.890663
29.250000	-73.502159
29.375000	-79.432159
29.500000	-76.160461
29.625000	-69.613029
29.750000	-72.134308
29.875000	-68.643623
30.000000	-69.337524
30.125000	-79.072021
30.250000	-72.668892
30.375000	-80.131508
30.500000	-78.428177
30.625000	-77.316551
30.750000	-72.462357
30.875000	-68.310883
31.000000	-69.179832
31.125000	-71.973778
31.250000	-78.095551
31.375000	-75.760750
31.500000	-76.237671
31.625000	-73.442810
31.750000	-70.440033
31.875000	-79.686661
32.000000	-77.173622
32.125000	-77.365601
32.250000	-75.389633
32.375000	-69.375931
32.500000	-71.527527
32.625000	-76.932472
32.750000	-77.245758
32.875000	-81.301323
33.000000	-87.323883
33.125000	-70.353577
33.250000	-69.121239
33.375000	-87.406227
33.500000	-79.888611
33.625000	-65.893852
33.750000	-68.774559
33.875000	-64.901680
34.000000	-64.668579
34.125000	-59.941895
34.250000	-56.896606
34.375000	-47.781704
34.500000	-40.746002
34.625000	-26.978722
34.750000	-4.374059
34.875000	-0.945140
35.000000	-9.856193
35.125000	-33.494259
35.250000	-44.287029
35.375000	-52.471527
35.500000	-57.116207
35.625000	-62.510895
35.750000	-65.155449
35.875000	-67.347099
36.000000	-88.951599
36.125000	-69.278252
36.250000	-77.566811
36.375000	-70.114441
36.500000	-72.074280
36.625000	-73.492752
36.750000	-73.839386
36.875000	-71.759460
37.000000	-75.181953
37.125000	-98.655670
37.250000	-89.656761
37.375000	-84.487076
37.500000	-74.056229
37.625000	-72.753822
37.750000	-83.384033
37.875000	-71.169167
38.000000	-70.213470
38.125000	-76.455391
38.250000	-70.660568
38.375000	-73.322464
38.500000	-81.535027
38.625000	-80.658501
38.750000	-75.110504
38.875000	-71.301949
39.000000	-75.822250
39.125000	-89.464653
39.250000	-73.013771
39.375000	-69.668030
39.500000	-72.006500
39.625000	-72.661385
39.750000	-73.051498
39.875000	-73.900162
40.000000	-72.926620
40.125000	-74.751839
40.250000	-74.642494
40.375000	-77.157951
40.500000	-83.013939
40.625000	-73.681084
40.750000	-80.785080
40.875000	-68.702690
41.000000	-69.397926
41.125000	-72.564926
41.250000	-71.385834
41.375000	-72.935059
41.500000	-71.026947
41.625000	-74.641769
41.750000	-76.424454
41.875000	-75.458923
42.000000	-75.610153
42.125000	-69.197456
42.250000	-75.195717
42.375000	-65.942924
42.500000	-65.651810
42.625000	-89.749939
42.750000	-72.819473
42.875000	-72.163406
43.000000	-71.340149
43.125000	-74.889793
43.250000	-70.140663
43.375000	-67.219452
43.500000	-70.269913
43.625000	-72.724464
43.750000	-68.548134
43.875000	-68.404755
44.000000	-69.884666
44.125000	-67.609306
44.250000	-68.948685
44.375000	-77.205116
44.500000	-79.732620
44.625000	-76.116951
44.750000	-81.206093
44.875000	-76.881454
45.000000	-79.247536
45.125000	-84.881493
45.250000	-80.112816
45.375000	-86.659767
45.500000	-68.331726
45.625000	-67.834946
45.750000	-75.001823
45.875000	-75.824287
46.000000	-73.817932
46.125000	-74.129860
46.250000	-76.401176
46.375000	-82.722466
46.500000	-74.975166
46.625000	-68.256935
46.750000	-67.018265
46.875000	-73.172226
47.000000	-78.014694
47.125000	-71.369118
47.250000	-69.580070
47.375000	-70.834488
47.500000	-69.619278
47.625000	-73.175453
47.750000	-83.192337
47.875000	-72.528008
48.000000	-68.429001
48.125000	-66.863533
48.250000	-69.241524
48.375000	-74.133804
48.500000	-71.658813
48.625000	-72.913864
48.750000	-73.329681
48.875000	-87.133018
49.000000	-86.168159
49.125000	-89.905472
49.250000	-75.186790
49.375000	-72.009438
49.500000	-68.160385
49.625000	-70.824188
49.750000	-61.550671
49.875000	-67.987587
50.000000	-79.316689
50.125000	-72.709366
50.250000	-75.111855
50.375000	-89.715897
50.500000	-80.712646
50.625000	-74.696175
50.750000	-71.797852
50.875000	-71.142754
51.000000	-71.574356
51.125000	-73.409157
51.250000	-71.607674
51.375000	-71.328979
51.500000	-69.164551
51.625000	-70.236313
51.750000	-75.675163
51.875000	-72.512459
52.000000	-72.432152
52.125000	-80.778122
52.250000	-76.158836
52.375000	-72.373558
52.500000	-70.988686
52.625000	-74.907646
52.750000	-72.619476
52.875000	-78.355827
53.000000	-75.476273
53.125000	-75.493034
53.250000	-72.592690
53.375000	-73.297821
53.500000	-81.659836
53.625000	-72.531693
53.750000	-74.969536
53.875000	-80.228149
54.000000	-79.326591
54.125000	-83.009178
54.250000	-76.794670
54.375000	-68.750198
54.500000	-75.235031
54.625000	-72.655418
54.750000	-73.595230
54.875000	-77.969643
55.000000	-74.775040
55.125000	-69.877205
55.250000	-67.875420
55.375000	-65.988693
55.500000	-67.476112
55.625000	-69.159248
55.750000	-67.819954
55.875000	-71.976173
56.000000	-74.886932
56.125000	-71.930840
56.250000	-72.449089
56.375000	-75.841515
56.500000	-87.823380
56.625000	-77.726593
56.750000	-71.220062
56.875000	-68.006744
57.000000	-66.864479
57.125000	-65.819923
57.250000	-77.851753
57.375000	-73.591583
57.500000	-70.451889
57.625000	-68.398979
57.750000	-72.569420
57.875000	-88.011116
58.000000	-83.133698
58.125000	-84.104500
58.250000	-78.212593
58.375000	-72.038071
58.500000	-67.939400
58.625000	-84.542725
58.750000	-74.373848
58.875000	-72.481369
59.000000	-66.919579
59.125000	-66.920807
59.250000	-67.779854
59.375000	-67.115387
59.500000	-64.917030
59.625000	-61.388985
59.750000	-59.150440
59.875000	-68.964249
60.000000	-72.984077
60.125000	-67.377228
60.250000	-63.970848
60.375000	-64.495026
60.500000	-74.400696
60.625000	-71.722595
60.750000	-70.408188
60.875000	-65.280632
61.000000	-73.943474
61.125000	-68.432205
61.250000	-66.557343
61.375000	-70.828018
61.500000	-80.617035
61.625000	-68.882706
61.750000	-66.946060
61.875000	-68.730614
62.000000	-68.224251
62.125000	-67.574852
62.250000	-68.313576
62.375000	-80.165375
62.500000	-77.783577
62.625000	-72.900810
62.750000	-70.264862
62.875000	-70.851311
63.000000	-72.285072
63.125000	-75.936928
63.250000	-73.798965
63.375000	-75.480751
63.500000	-74.570854
63.625000	-66.887833
63.750000	-72.257164
63.875000	-72.692169
64.000000	-68.994652
64.125000	-74.186325
64.250000	-76.713051
64.375000	-71.869362
64.500000	-69.214294
64.625000	-71.275322
64.750000	-70.860718
64.875000	-65.365860
65.000000	-69.972763
65.125000	-73.450371
65.250000	-68.265221
65.375000	-72.993988
65.500000	-73.615181
65.625000	-66.966644
65.750000	-68.547646
65.875000	-71.834816
66.000000	-73.092728
66.125000	-75.700302
66.250000	-73.689911
66.375000	-74.827179
66.500000	-92.816513
66.625000	-75.881195
66.750000	-74.243805
66.875000	-77.849434
67.000000	-73.364365
67.125000	-73.593018
67.250000	-68.886024
67.375000	-72.627548
67.500000	-67.879051
67.625000	-67.615028
67.750000	-69.166031
67.875000	-69.583733
68.000000	-80.908295
68.125000	-72.301483
68.250000	-71.325874
68.375000	-69.939964
68.500000	-72.846718
68.625000	-71.227905
68.750000	-76.666367
68.875000	-77.123367
69.000000	-72.992935
69.125000	-77.439117
69.250000	-67.695915
69.375000	-65.684334
69.500000	-50.074787
69.625000	-35.765869
69.750000	-34.816422
69.875000	-46.104420
70.000000	-67.384514
70.125000	-70.653152
70.250000	-70.535469
70.375000	-76.838409
70.500000	-82.253998
70.625000	-71.971542
70.750000	-76.150620
70.875000	-78.829323
71.000000	-71.459053
71.125000	-69.503281
71.250000	-69.617325
71.375000	-73.672424
71.500000	-85.663681
71.625000	-80.311043
71.750000	-78.165115
71.875000	-72.785820
72.000000	-72.046967
72.125000	-70.913025
72.250000	-72.186020
72.375000	-75.275848
72.500000	-77.123459
72.625000	-71.823700
72.750000	-73.199623
72.875000	-79.925316
73.000000	-85.125908
73.125000	-78.899193
73.250000	-75.807091
73.375000	-70.380585
73.500000	-69.556206
73.625000	-74.503693
73.750000	-80.131363
73.875000	-77.894203
74.000000	-76.403496
74.125000	-74.674149
74.250000	-77.402802
74.375000	-81.722237
74.500000	-81.785538
74.625000	-74.053741
74.750000	-77.318855
74.875000	-81.667305
75.000000	-77.151505
75.125000	-77.768341
75.250000	-78.955437
75.375000	-76.947891
75.500000	-88.597481
75.625000	-78.580238
75.750000	-103.109520
75.875000	-82.585304
76.000000	-79.096695
76.125000	-77.053726
76.250000	-71.337082
76.375000	-69.492393
76.500000	-69.725128
76.625000	-70.925667
76.750000	-77.272644
76.875000	-88.633331
77.000000	-78.471146
77.125000	-83.827751
77.250000	-82.121407
77.375000	-72.808235
77.500000	-71.514992
77.625000	-73.158104
77.750000	-75.982338
77.875000	-88.072693
78.000000	-74.035599
78.125000	-72.593842
78.250000	-73.623108
78.375000	-77.650307
78.500000	-76.809158
78.625000	-75.512634
78.750000	-83.640686
78.875000	-79.691277
79.000000	-83.326279
79.125000	-81.187355
79.250000	-82.770386
79.375000	-80.142212
79.500000	-76.012436
79.625000	-81.212631
79.750000	-93.390450
79.875000	-82.271942
80.000000	-73.090652
80.125000	-70.756020
80.250000	-90.945816
80.375000	-73.518929
80.500000	-76.622917
80.625000	-84.093399
80.750000	-84.425751
80.875000	-88.698029
81.000000	-83.792168
81.125000	-85.768196
81.250000	-85.413742
81.375000	-84.664536
81.500000	-79.703568
81.625000	-82.719910
81.750000	-81.508781
81.875000	-77.492165
82.000000	-76.134766
82.125000	-77.258743
82.250000	-74.834404
82.375000	-75.702553
82.500000	-77.522339
82.625000	-75.787476
82.750000	-80.756538
82.875000	-80.140709
83.000000	-77.705269
83.125000	-76.634674
83.250000	-81.886574
83.375000	-78.625229
83.500000	-75.737030
83.625000	-81.764595
83.750000	-80.301514
83.875000	-85.378685
84.000000	-89.373848
84.125000	-82.166252
84.250000	-79.745476
84.375000	-77.437897
84.500000	-63.671791
84.625000	-60.103016
84.750000	-68.081123
84.875000	-79.205940
85.000000	-78.477982
85.125000	-77.050644
85.250000	-73.550079
85.375000	-70.895325
85.500000	-69.524895
85.625000	-74.509201
85.750000	-75.652939
85.875000	-69.635513
86.000000	-75.686249
86.125000	-87.187897
86.250000	-82.968483
86.375000	-86.607025
86.500000	-78.148796
86.625000	-79.202499
86.750000	-76.751060
86.875000	-90.529221
87.000000	-82.814400
87.125000	-78.448631
87.250000	-77.578720
87.375000	-79.437874
87.500000	-79.812378
87.625000	-87.712563
87.750000	-85.051712
87.875000	-81.540199
88.000000	-89.849571
88.125000	-78.080055
88.250000	-80.244423
88.375000	-75.504471
88.500000	-77.980721
88.625000	-83.674721
88.750000	-89.894508
88.875000	-81.658516
89.000000	-74.477310
89.125000	-75.587090
89.250000	-85.696640
89.375000	-87.750854
89.500000	-83.340904
89.625000	-73.342155
89.750000	-78.744591
89.875000	-76.217628
90.000000	-79.125954
90.125000	-87.337578
90.250000	-84.999741
90.375000	-84.448013
90.500000	-75.788269
90.625000	-78.095718
90.750000	-79.041672
90.875000	-86.349289
91.000000	-82.503830
91.125000	-79.209190
91.250000	-78.689545
91.375000	-75.568436
91.500000	-74.951744
91.625000	-77.324600
91.750000	-81.844391
91.875000	-80.418304
92.000000	-78.777107
92.125000	-78.626335
92.250000	-78.910469
92.375000	-79.128105
92.500000	-74.568703
92.625000	-70.962433
92.750000	-71.922279
92.875000	-81.217995
93.000000	-81.031105
93.125000	-85.079788
93.250000	-92.440689
93.375000	-81.765579
93.500000	-77.040474
93.625000	-76.413506
93.750000	-83.196350
93.875000	-88.498070
94.000000	-76.203041
94.125000	-75.801460
94.250000	-77.135376
94.375000	-79.263924
94.500000	-79.411156
94.625000	-81.461861
94.750000	-84.332237
94.875000	-80.421989
95.000000	-76.420929
95.125000	-72.668045
95.250000	-74.418488
95.375000	-79.798431
95.500000	-79.747505
95.625000	-80.295280
95.750000	-89.202408
95.875000	-85.263176
96.000000	-87.306175
96.125000	-80.063271
96.250000	-90.485039
96.375000	-84.872055
96.500000	-87.003746
96.625000	-88.330109
96.750000	-85.473061
96.875000	-78.436829
97.000000	-79.400230
97.125000	-78.633453
97.250000	-82.433205
97.375000	-89.872025
97.500000	-93.603088
97.625000	-81.946548
97.750000	-82.639389
97.875000	-79.666328
98.000000	-70.949921
98.125000	-69.629402
98.250000	-77.725967
98.375000	-91.298477
98.500000	-81.278137
98.625000	-81.644653
98.750000	-78.884331
98.875000	-81.372025
99.000000	-75.982643
99.125000	-92.022560
99.250000	-85.799873
99.375000	-91.451500
99.500000	-87.965889
99.625000	-78.719276
99.750000	-76.845436
99.875000	-86.823975
100.000000	-82.001183
100.125000	-81.826134
100.250000	-77.445969
100.375000	-74.474823
100.500000	-77.174553
100.625000	-80.192741
100.750000	-78.328873
100.875000	-75.600395
101.000000	-76.352654
101.125000	-77.141418
101.250000	-78.931557
101.375000	-82.243027
101.500000	-82.451393
101.625000	-92.042877
101.750000	-85.434700
101.875000	-84.520790
102.000000	-79.778954
102.125000	-77.707870
102.250000	-98.584030
102.375000	-79.020477
102.500000	-79.449585
102.625000	-83.434364
102.750000	-79.434402
102.875000	-74.846817
103.000000	-76.920914
103.125000	-78.667221
103.250000	-77.074028
103.375000	-101.357170
103.500000	-81.738350
103.625000	-81.208176
103.750000	-86.816925
103.875000	-80.319092
104.000000	-81.063354
104.125000	-77.866943
104.250000	-70.093277
104.375000	-48.598923
104.500000	-37.647900
104.625000	-39.050865
104.750000	-54.642014
104.875000	-73.770004
105.000000	-83.411011
105.125000	-77.088837
105.250000	-84.659607
105.375000	-78.273842
105.500000	-78.311287
105.625000	-77.950340
105.750000	-81.877235
105.875000	-84.161087
106.000000	-81.032021
106.125000	-85.413170
106.250000	-77.271957
106.375000	-76.550957
106.500000	-78.848740
106.625000	-81.645653
106.750000	-83.460236
106.875000	-81.513863
107.000000	-84.410156
107.125000	-83.926743
107.250000	-80.144066
107.375000	-79.297379
107.500000	-82.767967
107.625000	-75.770798
107.750000	-74.538315
107.875000	-79.204414
108.000000	-79.825798
108.125000	-79.636963
108.250000	-80.336334
108.375000	-86.010323
108.500000	-85.646027
108.625000	-82.029305
108.750000	-93.692223
108.875000	-87.237755
109.000000	-88.267540
109.125000	-81.943298
109.250000	-86.196426
109.375000	-83.530609
109.500000	-81.977219
109.625000	-81.195320
109.750000	-78.688782
109.875000	-93.598839
110.000000	-83.565384
110.125000	-84.535576
110.250000	-81.382874
110.375000	-82.041565
110.500000	-81.195213
110.625000	-76.639732
110.750000	-76.608963
110.875000	-82.620392
111.000000	-87.515167
111.125000	-78.533119
111.250000	-84.287445
111.375000	-85.003654
111.500000	-86.278923
111.625000	-84.917336
111.750000	-97.014534
111.875000	-84.393089
112.000000	-81.695702
112.125000	-79.309853
112.250000	-79.368584
112.375000	-81.864281
112.500000	-86.345505
112.625000	-92.013062
112.750000	-83.645775
112.875000	-81.891296
113.000000	-84.349953
113.125000	-83.610756
113.250000	-81.783211
113.375000	-78.981659
113.500000	-78.221207
113.625000	-81.919350
113.750000	-87.041679
113.875000	-83.803276
114.000000	-78.238495
114.125000	-78.265869
114.250000	-94.560555
114.375000	-82.634689
114.500000	-79.678978
114.625000	-85.983261
114.750000	-85.040924
114.875000	-97.387688
115.000000	-84.095741
115.125000	-83.579384
115.250000	-81.781174
115.375000	-81.345024
115.500000	-84.705109
115.625000	-93.684067
115.750000	-91.287857
115.875000	-94.138336
116.000000	-86.432663
116.125000	-87.130455
116.250000	-90.529297
116.375000	-82.213600
116.500000	-83.159241
116.625000	-80.639122
116.750000	-86.903572
116.875000	-83.866821
117.000000	-86.189705
117.125000	-84.381203
117.250000	-96.648399
117.375000	-88.318901
117.500000	-90.513580
117.625000	-84.849937
117.750000	-87.058182
117.875000	-81.096634
118.000000	-77.120361
118.125000	-76.913383
118.250000	-80.143143
118.375000	-86.781311
118.500000	-79.413483
118.625000	-83.865784
118.750000	-88.302002
118.875000	-79.319809
119.000000	-91.660484
119.125000	-68.781677
119.250000	-56.419750
119.375000	-40.460655
119.500000	-39.623646
119.625000	-52.018929
119.750000	-71.389244
119.875000	-81.845268
120.000000	-86.574005
120.125000	-88.558746
120.250000	-86.743523
120.375000	-87.413635
120.500000	-79.044807
120.625000	-85.054634
120.750000	-101.794250
120.875000	-93.169373
121.000000	-98.000298
121.125000	-99.963455
121.250000	-83.108536
121.375000	-82.237160
121.500000	-83.674820
121.625000	-89.475929
121.750000	-100.099144
121.875000	-96.608559
122.000000	-85.577225
122.125000	-84.244431
122.250000	-94.455109
122.375000	-83.272408
122.500000	-84.597046
122.625000	-92.893433
122.750000	-89.523987
122.875000	-83.287979
123.000000	-83.425781
123.125000	-85.078712
123.250000	-88.069038
123.375000	-97.961952
123.500000	-84.260628
123.625000	-80.804070
123.750000	-80.348083
123.875000	-81.058418
124.000000	-83.111145
124.125000	-86.025581
124.250000	-90.844078
124.375000	-89.713081
124.500000	-100.461525
124.625000	-94.123383
124.750000	-90.127197
124.875000	-89.113586
125.000000	-85.589859
125.125000	-93.100334
125.250000	-89.511444
125.375000	-83.129463
125.500000	-82.950684
125.625000	-91.317818
125.750000	-88.637428
125.875000	-78.668434
126.000000	-80.863792
126.125000	-85.778809
126.250000	-89.122688
126.375000	-86.184181
126.500000	-91.322937
126.625000	-79.032768
126.750000	-84.384445
126.875000	-88.373825
127.000000	-82.623573
127.125000	-93.824791
127.250000	-83.463516
127.375000	-86.148735
127.500000	-85.348633
127.625000	-93.130791
127.750000	-88.465965
127.875000	-83.198868
128.000000	-81.224098
128.125000	-86.215019
128.250000	-94.597916
128.375000	-87.893936
128.500000	-82.610985
128.625000	-76.518715
128.750000	-79.466255
128.875000	-87.016037
129.000000	-99.340012
129.125000	-90.576286
129.250000	-86.193535
129.375000	-80.497818
129.500000	-81.345390
129.625000	-82.457169
129.750000	-83.487244
129.875000	-85.231377
130.000000	-83.307602
130.125000	-84.404991
130.250000	-96.166344
130.375000	-88.407150
130.500000	-88.522713
130.625000	-82.331535
130.750000	-89.245636
130.875000	-84.964256
131.000000	-79.861725
131.125000	-80.169098
131.250000	-90.032082
131.375000	-86.605461
131.500000	-86.886787
131.625000	-81.548767
131.750000	-81.074966
131.875000	-84.567863
132.000000	-109.299919
132.125000	-87.541618
132.250000	-84.167046
132.375000	-78.740959
132.500000	-77.660675
132.625000	-82.003937
132.750000	-83.923103
132.875000	-85.297127
133.000000	-86.851791
133.125000	-86.852310
133.250000	-92.188972
133.375000	-86.781799
133.500000	-87.932053
133.625000	-94.495743
133.750000	-83.360481
133.875000	-86.741959
134.000000	-97.996689
134.125000	-87.134605
134.250000	-83.003860
134.375000	-83.263908
134.500000	-79.756630
134.625000	-80.288139
134.750000	-88.857346
134.875000	-90.994415
135.000000	-88.518661
135.125000	-95.046982
135.250000	-87.070183
135.375000	-84.597961
135.500000	-94.866875
135.625000	-88.181015
135.750000	-100.979210
135.875000	-90.368584
136.000000	-90.023880
136.125000	-94.076508
136.250000	-87.125412
136.375000	-83.524925
136.500000	-87.350800
136.625000	-89.865166
136.750000	-86.014336
136.875000	-88.518173
137.000000	-91.186150
137.125000	-89.637245
137.250000	-94.148094
137.375000	-87.856697
137.500000	-82.418991
137.625000	-82.926941
137.750000	-83.349785
137.875000	-98.713539
138.000000	-85.617569
138.125000	-87.341141
138.250000	-83.048386
138.375000	-80.044106
138.500000	-85.903503
138.625000	-88.987343
138.750000	-85.625504
138.875000	-86.593239
139.000000	-84.572899
139.125000	-80.478981
139.250000	-51.184879
139.375000	-43.247837
139.500000	-47.030018
139.625000	-68.394981
139.750000	-83.690964
139.875000	-88.310196
140.000000	-84.258560
140.125000	-91.378319
140.250000	-85.448296
140.375000	-88.630379
140.500000	-91.379219
140.625000	-88.984360
140.750000	-83.074432
140.875000	-83.812447
141.000000	-81.411247
141.125000	-82.385216
141.250000	-94.773170
141.375000	-86.150459
141.500000	-82.300087
141.625000	-82.266411
141.750000	-86.570206
141.875000	-94.779602
142.000000	-101.741692
142.125000	-84.850151
142.250000	-84.024094
142.375000	-86.681007
142.500000	-88.278297
142.625000	-90.282532
142.750000	-86.964615
142.875000	-85.295639
143.000000	-90.349648
143.125000	-89.466667
143.250000	-85.668968
143.375000	-88.495369
143.500000	-87.371048
143.625000	-97.944084
143.750000	-98.188255
143.875000	-94.795509
144.000000	-83.713387
144.125000	-83.446259
144.250000	-82.986740
144.375000	-83.022987
144.500000	-82.177330
144.625000	-82.102348
144.750000	-89.566811
144.875000	-80.531822
145.000000	-82.792801
145.125000	-91.255928
145.250000	-84.411537
145.375000	-94.922371
145.500000	-88.558594
145.625000	-94.819946
145.750000	-81.501686
145.875000	-87.011276
146.000000	-83.713753
146.125000	-84.182564
146.250000	-81.503883
146.375000	-78.453110
146.500000	-82.504677
146.625000	-93.740448
146.750000	-87.394188
146.875000	-87.711815
147.000000	-89.484772
147.125000	-90.197617
147.250000	-93.283585
147.375000	-97.752655
147.500000	-93.366066
147.625000	-87.285095
147.750000	-84.182304
147.875000	-87.692215
148.000000	-88.965126
148.125000	-91.424744
148.250000	-85.845818
148.375000	-85.259872
148.500000	-92.528458
148.625000	-90.379532
148.750000	-94.377708
148.875000	-85.436417
149.000000	-87.881157
149.125000	-88.339615
149.250000	-86.906158
149.375000	-91.218903
149.500000	-86.493797
149.625000	-87.059021
149.750000	-94.854317
149.875000	-98.348312
150.000000	-95.020554
150.125000	-90.237373
150.250000	-87.784142
150.375000	-97.133240
150.500000	-87.477806
150.625000	-86.506798
150.750000	-95.298843
150.875000	-90.513351
151.000000	-87.033653
151.125000	-94.559494
151.250000	-82.941536
151.375000	-82.652710
151.500000	-98.011536
151.625000	-91.788574
151.750000	-92.797813
151.875000	-85.981857
152.000000	-85.056961
152.125000	-96.119598
152.250000	-87.296715
152.375000	-90.066437
152.500000	-88.138184
152.625000	-84.966522
152.750000	-87.750549
152.875000	-90.410721
153.000000	-97.193962
153.125000	-97.084045
153.250000	-88.973251
153.375000	-86.009476
153.500000	-88.786781
153.625000	-107.424644
153.750000	-91.198997
153.875000	-87.208672
154.000000	-88.558571
154.125000	-71.487129
154.250000	-61.345291
154.375000	-62.767139
154.500000	-77.528572
154.625000	-88.076866
154.750000	-88.342209
154.875000	-89.589508
155.000000	-87.960365
155.125000	-95.421562
155.250000	-97.307739
155.375000	-94.983101
155.500000	-87.548401
155.625000	-89.134575
155.750000	-90.465256
155.875000	-91.035370
156.000000	-87.145294
156.125000	-87.307533
156.250000	-90.690086
156.375000	-97.674492
156.500000	-112.305283
156.625000	-98.242218
156.750000	-94.967033
156.875000	-87.930000
157.000000	-91.946426
157.125000	-102.546532
157.250000	-91.352425
157.375000	-89.924713
157.500000	-88.244774
157.625000	-84.133850
157.750000	-85.298950
157.875000	-89.261368
158.000000	-92.089691
158.125000	-89.568649
158.250000	-96.546638
158.375000	-91.651520
158.500000	-86.460152
158.625000	-86.507195
158.750000	-83.891922
158.875000	-85.597481
159.000000	-98.765114
159.125000	-85.973183
159.250000	-81.833778
159.375000	-82.166557
159.500000	-83.868240
159.625000	-87.744293
159.750000	-92.605125
159.875000	-86.861870
160.000000	-84.559731
160.125000	-88.865715
160.250000	-101.688011
160.375000	-89.745399
160.500000	-96.833046
160.625000	-90.235542
160.750000	-89.797096
160.875000	-94.654831
161.000000	-96.357315
161.125000	-90.008217
161.250000	-91.059311
161.375000	-95.709122
161.500000	-93.301453
161.625000	-101.381615
161.750000	-94.097160
161.875000	-102.317757
162.000000	-85.191032
162.125000	-82.335487
162.250000	-83.499924
162.375000	-90.285400
162.500000	-90.157829
162.625000	-93.080872
162.750000	-93.713242
162.875000	-87.324295
163.000000	-84.130074
163.125000	-95.114075
163.250000	-90.669373
163.375000	-81.672409
163.500000	-73.933426
163.625000	-79.590752
163.750000	-101.544029
163.875000	-98.621971
164.000000	-96.090454
164.125000	-90.727699
164.250000	-89.309540
164.375000	-88.397072
164.500000	-83.895500
164.625000	-94.846924
164.750000	-90.691086
164.875000	-93.269142
165.000000	-84.199486
165.125000	-83.288750
165.250000	-87.028885
165.375000	-100.708641
165.500000	-98.164673
165.625000	-89.741051
165.750000	-87.269241
165.875000	-96.639252
166.000000	-105.271057
166.125000	-88.556137
166.250000	-96.201622
166.375000	-93.428818
166.500000	-98.298882
166.625000	-102.589149
166.750000	-88.217201
166.875000	-88.312218
167.000000	-89.838203
167.125000	-85.713112
167.250000	-93.669479
167.375000	-84.683876
167.500000	-86.453804
167.625000	-90.742630
167.750000	-94.850845
167.875000	-95.829697
168.000000	-88.777733
168.125000	-94.565880
168.250000	-105.421280
168.375000	-105.758919
168.500000	-90.785324
168.625000	-87.353226
168.750000	-90.814034
168.875000	-91.832016
169.000000	-92.241508
169.125000	-87.487328
169.250000	-87.499588
169.375000	-97.200142
169.500000	-92.592354
169.625000	-92.760857
169.750000	-93.226608
169.875000	-93.440498
170.000000	-94.848648
170.125000	-94.835907
170.250000	-91.864365
170.375000	-91.813492
170.500000	-88.745148
170.625000	-94.757645
170.750000	-88.483566
170.875000	-85.249481
171.000000	-87.908813
171.125000	-100.485291
171.250000	-92.768814
171.375000	-90.894081
171.500000	-91.479065
171.625000	-95.339722
171.750000	-97.431534
171.875000	-87.853668
172.000000	-99.607483
172.125000	-91.960327
172.250000	-95.944847
172.375000	-89.659172
172.500000	-103.240234
172.625000	-94.856842
172.750000	-94.387825
172.875000	-92.136032
173.000000	-95.777367
173.125000	-93.221840
173.250000	-91.191765
173.375000	-105.184303
173.500000	-93.723129
173.625000	-92.897713
173.750000	-89.678581
173.875000	-91.371231
174.000000	-83.727478
174.125000	-54.346684
174.250000	-48.944195
174.375000	-55.446022
174.500000	-92.002243
174.625000	-90.383392
174.750000	-86.958824
174.875000	-89.507950
175.000000	-95.729271
175.125000	-95.740540
175.250000	-100.574211
175.375000	-94.820885
175.500000	-99.590080
175.625000	-93.621765
175.750000	-94.491890
175.875000	-97.824440
176.000000	-105.834862
176.125000	-99.434433
176.250000	-92.507782
176.375000	-88.732925
176.500000	-90.157158
176.625000	-101.755997
176.750000	-99.292534
176.875000	-92.039337
177.000000	-88.669533
177.125000	-92.976845
177.250000	-93.407356
177.375000	-92.266876
177.500000	-94.799202
177.625000	-92.986885
177.750000	-101.150162
177.875000	-102.558807
178.000000	-91.036903
178.125000	-88.527885
178.250000	-85.988174
178.375000	-92.128853
178.500000	-100.189453
178.625000	-93.969902
178.750000	-98.197868
178.875000	-85.731003
179.000000	-82.523911
179.125000	-67.347275
179.250000	-68.249809
179.375000	-81.751541
179.500000	-92.080368
179.625000	-96.852753
179.750000	-95.151718
179.875000	-91.115700
180.000000	-90.694756
180.125000	-90.725914
180.250000	-103.163048
180.375000	-92.910347
180.500000	-91.684700
180.625000	-92.600731
180.750000	-90.311043
180.875000	-89.998260
181.000000	-85.874886
181.125000	-90.642830
181.250000	-107.112289
181.375000	-94.808388
181.500000	-92.244415
181.625000	-96.888840
181.750000	-100.922531
181.875000	-93.309372
182.000000	-94.826027
182.125000	-95.268669
182.250000	-94.346786
182.375000	-90.083145
182.500000	-90.987137
182.625000	-98.786812
182.750000	-96.874146
182.875000	-89.169106
183.000000	-89.166283
183.125000	-91.187897
183.250000	-97.789124
183.375000	-93.456352
183.500000	-88.262337
183.625000	-90.144974
183.750000	-92.863983
183.875000	-92.971931
184.000000	-90.391197
184.125000	-89.369766
184.250000	-92.556366
184.375000	-95.332733
184.500000	-94.071976
184.625000	-94.098366
184.750000	-99.559395
184.875000	-92.934616
185.000000	-87.342514
185.125000	-88.345322
185.250000	-89.038979
185.375000	-98.118256
185.500000	-95.550964
185.625000	-96.092644
185.750000	-105.790955
185.875000	-99.873367
186.000000	-98.125214
186.125000	-91.791977
186.250000	-93.422333
186.375000	-103.093590
186.500000	-98.766228
186.625000	-93.886063
186.750000	-95.461380
186.875000	-100.255272
187.000000	-108.611931
187.125000	-100.952164
187.250000	-99.373787
187.375000	-96.979370
187.500000	-93.217216
187.625000	-95.081528
187.750000	-94.217957
187.875000	-92.802269
188.000000	-99.384331
188.125000	-94.850998
188.250000	-90.937721
188.375000	-90.991821
188.500000	-93.249695
188.625000	-94.534103
188.750000	-96.902397
188.875000	-101.325912
189.000000	-70.429085
189.125000	-62.569778
189.250000	-66.154518
189.375000	-86.573112
189.500000	-91.905006
189.625000	-91.283875
189.750000	-92.526001
189.875000	-94.153770
190.000000	-91.936028
190.125000	-92.244408
190.250000	-89.527962
190.375000	-91.826820
190.500000	-92.087448
190.625000	-92.341019
190.750000	-96.209068
190.875000	-93.130707
191.000000	-89.561707
191.125000	-91.063156
191.250000	-102.675789
191.375000	-88.117798
191.500000	-92.953339
191.625000	-91.296036
191.750000	-89.641083
191.875000	-97.196632
192.000000	-95.776825
192.125000	-89.510666
192.250000	-86.365356
192.375000	-88.411156
192.500000	-91.965202
192.625000	-93.827675
192.750000	-97.040382
192.875000	-102.723885
193.000000	-94.100166
193.125000	-93.732147
193.250000	-90.959343
193.375000	-93.973488
193.500000	-95.720276
193.625000	-95.114822
193.750000	-98.962173
193.875000	-94.644211
194.000000	-100.920784
194.125000	-94.990646
194.250000	-91.841782
194.375000	-93.059860
194.500000	-95.905594
194.625000	-89.255280
194.750000	-89.436333
194.875000	-100.888931
195.000000	-95.621017
195.125000	-92.428146
195.250000	-93.619751
195.375000	-95.470016
195.500000	-92.875023
195.625000	-90.274429
195.750000	-90.659142
195.875000	-98.333435
196.000000	-103.821976
196.125000	-101.511848
196.250000	-93.129341
196.375000	-95.106270
196.500000	-98.740761
196.625000	-94.421883
196.750000	-96.314323
196.875000	-90.581772
197.000000	-86.028160
197.125000	-85.671646
197.250000	-88.550827
197.375000	-90.614502
197.500000	-88.632011
197.625000	-90.571426
197.750000	-98.603722
197.875000	-106.673241
198.000000	-95.114151
198.125000	-95.719429
198.250000	-77.681244
198.375000	-72.710724
198.500000	-78.578033
198.625000	-91.265556
198.750000	-94.764084
198.875000	-97.644241
199.000000	-94.825706
199.125000	-89.485519
199.250000	-89.822250
199.375000	-93.329559
199.500000	-103.870163
199.625000	-92.455925
199.750000	-91.487617
199.875000	-94.805634
200.000000	-97.584099
200.125000	-96.775185
200.250000	-88.930580
200.375000	-93.959236
200.500000	-94.669250
200.625000	-90.931320
200.750000	-97.775375
200.875000	-93.329735
201.000000	-92.130890
201.125000	-98.429283
201.250000	-97.277931
201.375000	-95.485443
201.500000	-91.765038
201.625000	-85.719444
201.750000	-84.604607
201.875000	-87.962143
202.000000	-96.414162
202.125000	-94.253571
202.250000	-100.182892
202.375000	-103.642731
202.500000	-94.965576
202.625000	-88.828148
202.750000	-87.764137
202.875000	-89.697243
203.000000	-92.334595
203.125000	-94.122353
203.250000	-93.503929
203.375000	-88.951134
203.500000	-85.608192
203.625000	-87.888496
203.750000	-91.735062
203.875000	-104.276184
204.000000	-89.665123
204.125000	-88.077049
204.250000	-102.505066
204.375000	-90.191620
204.500000	-87.227272
204.625000	-89.780495
204.750000	-94.372086
204.875000	-93.083359
205.000000	-98.603989
205.125000	-98.332390
205.250000	-101.923744
205.375000	-111.265419
205.500000	-104.949036
205.625000	-94.779991
205.750000	-96.495132
205.875000	-102.035172
206.000000	-99.653709
206.125000	-95.747284
206.250000	-94.282898
206.375000	-90.064102
206.500000	-89.132614
206.625000	-101.537712
206.750000	-93.030731
206.875000	-96.139931
207.000000	-91.878578
207.125000	-89.339264
207.250000	-90.069412
207.375000	-91.192711
207.500000	-92.690483
207.625000	-90.544090
207.750000	-87.311615
207.875000	-88.014931
208.000000	-89.131355
208.125000	-88.277969
208.250000	-95.395828
208.375000	-114.705124
208.500000	-100.195129
208.625000	-92.670654
208.750000	-85.261894
208.875000	-84.044762
209.000000	-64.110397
209.125000	-61.132542
209.250000	-70.808609
209.375000	-87.371902
209.500000	-95.830917
209.625000	-99.874916
209.750000	-98.342850
209.875000	-95.036255
210.000000	-99.708008
210.125000	-95.188980
210.250000	-93.343979
210.375000	-96.869324
210.500000	-98.855476
210.625000	-105.959068
210.750000	-97.855972
210.875000	-96.441101
211.000000	-94.218025
211.125000	-90.047798
211.250000	-91.454041
211.375000	-95.157494
211.500000	-100.293129
211.625000	-98.224739
211.750000	-97.967712
211.875000	-101.430687
212.000000	-94.802856
212.125000	-90.783966
212.250000	-99.659882
212.375000	-93.074913
212.500000	-94.229111
212.625000	-105.887245
212.750000	-104.624138
212.875000	-97.673393
213.000000	-101.259834
213.125000	-92.762878
213.250000	-82.101639
213.375000	-80.465981
213.500000	-86.096443
213.625000	-96.787270
213.750000	-96.235214
213.875000	-97.619446
214.000000	-95.402672
214.125000	-93.279449
214.250000	-91.058609
214.375000	-98.158325
214.500000	-107.087128
214.625000	-94.994217
214.750000	-92.471794
214.875000	-95.946793
215.000000	-96.243980
215.125000	-100.029068
215.250000	-104.625862
215.375000	-101.596947
215.500000	-102.845848
215.625000	-107.320503
215.750000	-102.765648
215.875000	-93.073509
216.000000	-95.700768
216.125000	-106.868271
216.250000	-95.751083
216.375000	-95.653366
216.500000	-92.593620
216.625000	-95.310806
216.750000	-95.182541
216.875000	-92.115067
217.000000	-92.242157
217.125000	-100.796547
217.250000	-97.479584
217.375000	-107.748207
217.500000	-102.995125
217.625000	-94.177895
217.750000	-90.461128
217.875000	-89.945518
218.000000	-93.045738
218.125000	-101.829941
218.250000	-89.817902
218.375000	-87.131798
218.500000	-91.659081
218.625000	-93.484619
218.750000	-93.147118
218.875000	-91.641319
219.000000	-101.076782
219.125000	-95.847038
219.250000	-96.233574
219.375000	-100.426743
219.500000	-100.265518
219.625000	-92.939629
219.750000	-90.355164
219.875000	-90.856079
220.000000	-95.955078
220.125000	-101.579041
220.250000	-102.500488
220.375000	-95.541695
220.500000	-92.802574
220.625000	-91.558250
220.750000	-92.196938
220.875000	-97.382393
221.000000	-104.378685
221.125000	-94.879196
221.250000	-94.764511
221.375000	-95.593979
221.500000	-102.296860
221.625000	-94.707603
221.750000	-101.937904
221.875000	-110.984138
222.000000	-97.523064
222.125000	-96.700974
222.250000	-100.829712
222.375000	-99.293449
222.500000	-90.054749
222.625000	-88.709610
222.750000	-93.196007
222.875000	-96.957840
223.000000	-109.238762
223.125000	-97.236717
223.250000	-102.108574
223.375000	-96.625015
223.500000	-94.599930
223.625000	-96.762436
223.750000	-95.491730
223.875000	-73.207100
224.000000	-68.469254
224.125000	-74.514580
224.250000	-93.060318
224.375000	-97.047470
224.500000	-110.385971
224.625000	-90.593773
224.750000	-90.789627
224.875000	-99.324860
225.000000	-92.470695
225.125000	-94.813591
225.250000	-93.636848
225.375000	-90.391190
225.500000	-94.013206
225.625000	-97.090294
225.750000	-91.908272
225.875000	-92.356659
226.000000	-96.941513
226.125000	-99.409668
226.250000	-94.306725
226.375000	-92.811241
226.500000	-94.564766
226.625000	-107.280243
226.750000	-102.907196
226.875000	-92.790131
227.000000	-92.670174
227.125000	-95.265800
227.250000	-93.854965
227.375000	-89.310104
227.500000	-90.858955
227.625000	-99.164017
227.750000	-99.039963
227.875000	-98.401161
228.000000	-96.648178
228.125000	-93.870193
228.250000	-88.184868
228.375000	-89.880692
228.500000	-97.694031
228.625000	-99.165825
228.750000	-106.314438
228.875000	-95.101303
229.000000	-94.472977
229.125000	-102.241341
229.250000	-101.470772
229.375000	-106.428139
229.500000	-94.851822
229.625000	-98.535065
229.750000	-100.299904
229.875000	-92.379066
230.000000	-93.280647
230.125000	-98.582230
230.250000	-93.541679
230.375000	-100.099762
230.500000	-93.874489
230.625000	-96.461739
230.750000	-91.386147
230.875000	-96.761719
231.000000	-94.642761
231.125000	-89.792290
231.250000	-91.058075
231.375000	-91.912964
231.500000	-92.642464
231.625000	-96.304146
231.750000	-96.012955
231.875000	-100.640488
232.000000	-97.782837
232.125000	-91.882973
232.250000	-94.100922
232.375000	-103.876083
232.500000	-96.464058
232.625000	-94.971985
232.750000	-98.989380
232.875000	-96.007164
233.000000	-86.319885
233.125000	-77.418236
233.250000	-75.904297
233.375000	-83.411835
233.500000	-90.274200
233.625000	-93.643005
233.750000	-98.133736
233.875000	-101.573349
234.000000	-92.939781
234.125000	-98.330765
234.250000	-107.136780
234.375000	-100.396797
234.500000	-102.602982
234.625000	-99.830391
234.750000	-94.062416
234.875000	-103.676003
235.000000	-106.158211
235.125000	-104.436493
235.250000	-98.301422
235.375000	-91.841949
235.500000	-92.953865
235.625000	-102.005180
235.750000	-104.558617
235.875000	-93.039848
236.000000	-90.403770
236.125000	-90.439049
236.250000	-94.851128
236.375000	-96.539062
236.500000	-92.883263
236.625000	-101.101639
236.750000	-96.780838
236.875000	-92.978241
237.000000	-91.277122
237.125000	-94.615753
237.250000	-97.242386
237.375000	-93.301849
237.500000	-93.854858
237.625000	-95.538879
237.750000	-98.309921
237.875000	-96.971451
238.000000	-98.489326
238.125000	-89.317673
238.250000	-84.480515
238.375000	-89.483383
238.500000	-94.236244
238.625000	-96.298553
238.750000	-72.847450
238.875000	-65.166046
239.000000	-69.888138
239.125000	-99.193840
239.250000	-92.318756
239.375000	-94.179420
239.500000	-93.871201
239.625000	-98.162170
239.750000	-100.449272
239.875000	-95.574707
240.000000	-96.701096
240.125000	-104.413719
240.250000	-110.131355
240.375000	-95.109100
240.500000	-93.627991
240.625000	-95.382492
240.750000	-93.592300
240.875000	-92.068634
241.000000	-98.251083
241.125000	-91.745316
241.250000	-92.669670
241.375000	-102.922333
241.500000	-95.085281
241.625000	-96.992752
241.750000	-97.059563
241.875000	-100.473717
242.000000	-94.127693
242.125000	-94.981491
242.250000	-102.716515
242.375000	-103.098320
242.500000	-107.320900
242.625000	-99.502815
242.750000	-99.161476
242.875000	-94.245148
243.000000	-100.425072
243.125000	-97.496170
243.250000	-89.649582
243.375000	-89.374443
243.500000	-87.836342
243.625000	-90.272202
243.750000	-92.792419
243.875000	-80.620148
244.000000	-81.461983
244.125000	-111.059059
244.250000	-90.752853
244.375000	-86.833862
244.500000	-89.345123
244.625000	-94.315735
244.750000	-97.379501
244.875000	-98.455589
245.000000	-97.696754
245.125000	-106.901009
245.250000	-100.440918
245.375000	-101.439980
245.500000	-97.412331
245.625000	-95.807480
245.750000	-96.820290
245.875000	-97.389122
246.000000	-92.227707
246.125000	-94.939987
246.250000	-95.767151
246.375000	-92.199623
246.500000	-93.202354
246.625000	-96.155624
246.750000	-95.187386
246.875000	-95.799919
247.000000	-99.131752
247.125000	-91.791397
247.250000	-92.161720
247.375000	-97.136681
247.500000	-100.622055
247.625000	-105.782089
247.750000	-101.473511
247.875000	-110.128654
248.000000	-97.399094
248.125000	-95.451508
248.250000	-93.000893
248.375000	-103.523911
248.500000	-99.651482
248.625000	-93.936646
248.750000	-89.666809
248.875000	-89.921692
249.000000	-91.343658
249.125000	-93.587486
249.250000	-99.936630
249.375000	-94.048370
249.500000	-91.455589
249.625000	-95.484261
249.750000	-99.358543
249.875000	-98.434074
250.000000	-103.645958
250.125000	-92.171967
250.250000	-87.535767
250.375000	-96.271828
250.500000	-97.361107
250.625000	-93.589348
250.750000	-101.362434
250.875000	-97.227325
251.000000	-93.495621
251.125000	-98.848396
251.250000	-99.538971
251.375000	-97.053230
251.500000	-92.252739
251.625000	-90.293053
251.750000	-91.407776
251.875000	-95.071312
252.000000	-98.031219
252.125000	-97.991585
252.250000	-110.892723
252.375000	-96.496185
252.500000	-95.282494
252.625000	-95.093109
252.750000	-102.689461
252.875000	-98.341133
253.000000	-86.885979
253.125000	-75.729729
253.250000	-77.507126
253.375000	-91.418228
253.500000	-98.314636
253.625000	-108.046730
253.750000	-103.258400
253.875000	-94.569061
254.000000	-97.541023
254.125000	-104.191490
254.250000	-99.298767
254.375000	-95.342827
254.500000	-93.303696
254.625000	-95.235825
254.750000	-101.544830
254.875000	-104.055779
255.000000	-102.620911
255.125000	-107.978157
255.250000	-101.657555
255.375000	-94.710945
255.500000	-105.686920
255.625000	-98.810951
255.750000	-110.084793
255.875000	-97.954323
