Frequency (Hz)	Level (dB)
0.125000	-31.943451
0.250000	-81.663315
0.375000	-67.499207
0.500000	-74.904648
0.625000	-74.157784
0.750000	-67.954475
0.875000	-62.600708
1.000000	-65.841881
1.125000	-68.794037
1.250000	-68.459595
1.375000	-75.621284
1.500000	-63.129826
1.625000	-63.284512
1.750000	-62.254162
1.875000	-66.813782
2.000000	-62.981564
2.125000	-60.896084
2.250000	-63.210510
2.375000	-75.180214
2.500000	-63.082890
2.625000	-60.254238
2.750000	-61.615215
2.875000	-66.036453
3.000000	-71.428879
3.125000	-75.272026
3.250000	-74.328415
3.375000	-71.686699
3.500000	-98.141541
3.625000	-65.108574
3.750000	-67.856255
3.875000	-65.189751
4.000000	-58.669930
4.125000	-61.549572
4.250000	-61.977139
4.375000	-69.550575
4.500000	-89.483673
4.625000	-76.575661
4.750000	-87.349121
4.875000	-73.990608
5.000000	-66.285995
5.125000	-64.881165
5.250000	-62.149323
5.375000	-65.521797
5.500000	-71.384583
5.625000	-65.607330
5.750000	-63.652004
5.875000	-61.420494
6.000000	-60.707500
6.125000	-62.054760
6.250000	-65.865608
6.375000	-67.613060
6.500000	-76.442078
6.625000	-75.580322
6.750000	-70.020088
6.875000	-67.187012
7.000000	-75.180557
7.125000	-73.624863
7.250000	-69.487190
7.375000	-70.569580
7.500000	-70.168465
7.625000	-71.447815
7.750000	-72.258347
7.875000	-67.189056
8.000000	-63.701778
8.125000	-63.570045
8.250000	-66.761101
8.375000	-70.458115
8.500000	-72.729813
8.625000	-71.121010
8.750000	-66.412056
8.875000	-79.376305
9.000000	-78.383408
9.125000	-75.822937
9.250000	-72.109436
9.375000	-79.703819
9.500000	-69.019096
9.625000	-63.803581
9.750000	-71.353424
9.875000	-64.588615
10.000000	-64.126328
10.125000	-59.243168
10.250000	-54.665901
10.375000	-52.443844
10.500000	-44.223225
10.625000	-35.178123
10.750000	-19.844263
10.875000	-3.095939
11.000000	-1.700266
11.125000	-13.364669
11.250000	-32.336853
11.375000	-42.768902
11.500000	-49.123314
11.625000	-55.553574
11.750000	-58.426994
11.875000	-65.685089
12.000000	-64.100578
12.125000	-66.833008
12.250000	-75.047760
12.375000	-62.222183
12.500000	-67.377228
12.625000	-75.964264
12.750000	-73.831078
12.875000	-77.953728
13.000000	-68.966347
13.125000	-74.023262
13.250000	-73.757065
13.375000	-70.920036
13.500000	-78.274429
13.625000	-76.176407
13.750000	-69.730385
13.875000	-74.069778
14.000000	-70.404152
14.125000	-67.918488
14.250000	-75.680351
14.375000	-68.376167
14.500000	-75.287277
14.625000	-76.879494
14.750000	-75.220978
14.875000	-69.526924
15.000000	-66.098969
15.125000	-66.533562
15.250000	-72.389824
15.375000	-81.766129
15.500000	-72.035706
15.625000	-71.212929
15.750000	-80.792023
15.875000	-69.258125
16.000000	-68.879379
16.125000	-97.245834
16.250000	-69.482018
16.375000	-71.616852
16.500000	-71.157715
16.625000	-67.907501
16.750000	-69.651360
16.875000	-70.723061
17.000000	-75.519295
17.125000	-87.326950
17.250000	-72.646797
17.375000	-71.029579
17.500000	-72.777466
17.625000	-74.232323
17.750000	-75.617134
17.875000	-69.692024
18.000000	-72.476761
18.125000	-71.989372
18.250000	-67.077797
18.375000	-74.912865
18.500000	-73.150185
18.625000	-69.490303
18.750000	-67.319191
18.875000	-68.065269
19.000000	-80.604599
19.125000	-73.720169
19.250000	-75.599365
19.375000	-67.289948
19.500000	-69.649521
19.625000	-69.047447
19.750000	-68.402153
19.875000	-79.379082
20.000000	-76.948593
20.125000	-77.538239
20.250000	-74.908058
20.375000	-73.867264
20.500000	-73.503380
20.625000	-69.763969
20.750000	-70.386986
20.875000	-76.183502
21.000000	-77.603050
21.125000	-68.708252
21.250000	-73.708099
21.375000	-82.300621
21.500000	-67.420425
21.625000	-68.094215
21.750000	-43.681305
21.875000	-34.226974
22.000000	-37.376553
22.125000	-60.264999
22.250000	-79.390091
22.375000	-72.594940
22.500000	-96.595963
22.625000	-70.674072
22.750000	-67.811714
22.875000	-74.679573
23.000000	-81.100204
23.125000	-70.208130
23.250000	-68.350143
23.375000	-89.292702
23.500000	-78.636787
23.625000	-78.045738
23.750000	-74.927361
23.875000	-71.299828
24.000000	-68.761871
24.125000	-65.812759
24.250000	-67.903702
24.375000	-78.362473
24.500000	-74.110344
24.625000	-94.421242
24.750000	-80.205421
24.875000	-83.332664
25.000000	-84.508598
25.125000	-79.768524
25.250000	-71.196121
25.375000	-69.189667
25.500000	-71.900726
25.625000	-72.145531
25.750000	-69.762627
25.875000	-69.709839
26.000000	-70.592812
26.125000	-79.064217
26.250000	-81.931915
26.375000	-71.687057
26.500000	-87.356056
26.625000	-70.841873
26.750000	-69.978836
26.875000	-72.741722
27.000000	-80.563835
27.125000	-73.185860
27.250000	-71.103493
27.375000	-68.406639
27.500000	-77.410011
27.625000	-75.406998
27.750000	-71.791588
27.875000	-77.653099
28.000000	-77.632057
28.125000	-85.474281
28.250000	-72.831306
28.375000	-70.335976
28.500000	-73.028641
28.625000	-85.019127
28.750000	-78.192131
28.875000	-78.903091
29.000000	-85.136604
29.125000	-78.227638
29.250000	-71.295189
29.375000	-75.407654
29.500000	-71.205482
29.625000	-69.731293
29.750000	-81.566925
29.875000	-78.846024
30.000000	-80.103058
30.125000	-73.492500
30.250000	-86.243225
30.375000	-74.154724
30.500000	-81.961823
30.625000	-76.225235
30.750000	-69.514984
30.875000	-72.513985
31.000000	-80.650192
31.125000	-75.514862
31.250000	-82.277306
31.375000	-72.947365
31.500000	-68.313705
31.625000	-72.012840
31.750000	-72.814743
31.875000	-68.837204
32.000000	-69.506477
32.125000	-75.107780
32.250000	-71.775040
32.375000	-75.233994
32.500000	-69.249329
32.625000	-64.334236
32.750000	-40.730171
32.875000	-36.479946
33.000000	-44.507164
33.125000	-70.778831
33.250000	-67.823280
33.375000	-78.026070
33.500000	-88.211601
33.625000	-77.013977
33.750000	-72.435486
33.875000	-71.893433
34.000000	-91.452965
34.125000	-69.604736
34.250000	-72.935692
34.375000	-86.571068
34.500000	-80.655495
34.625000	-72.926865
34.750000	-71.249306
34.875000	-72.641037
35.000000	-74.269791
35.125000	-73.686409
35.250000	-75.228210
35.375000	-74.873535
35.500000	-72.344315
35.625000	-79.551720
35.750000	-75.543365
35.875000	-74.077087
36.000000	-74.465004
36.125000	-78.928200
36.250000	-81.608643
36.375000	-76.681770
36.500000	-91.623077
36.625000	-70.622841
36.750000	-67.039871
36.875000	-71.083107
37.000000	-76.457771
37.125000	-83.164268
37.250000	-75.673500
37.375000	-81.576385
37.500000	-74.001762
37.625000	-70.630836
37.750000	-72.509331
37.875000	-74.075333
38.000000	-70.888550
38.125000	-71.668579
38.250000	-74.776115
38.375000	-72.496452
38.500000	-70.418770
38.625000	-74.574509
38.750000	-72.466629
38.875000	-76.964325
39.000000	-77.068237
39.125000	-72.960518
39.250000	-68.074791
39.375000	-71.828461
39.500000	-72.537582
39.625000	-68.462280
39.750000	-68.581573
39.875000	-74.190994
40.000000	-75.420540
40.125000	-74.934631
40.250000	-92.022331
40.375000	-82.147667
40.500000	-76.442673
40.625000	-75.159866
40.750000	-69.980484
40.875000	-68.837692
41.000000	-86.029488
41.125000	-74.639893
41.250000	-72.675415
41.375000	-71.727592
41.500000	-74.336533
41.625000	-78.553040
41.750000	-77.359497
41.875000	-85.897453
42.000000	-77.927818
42.125000	-74.899498
42.250000	-102.087730
42.375000	-70.538193
42.500000	-66.641663
42.625000	-66.107712
42.750000	-72.527252
42.875000	-81.298561
43.000000	-71.427299
43.125000	-69.194221
43.250000	-80.213234
43.375000	-77.357010
43.500000	-78.725502
43.625000	-55.906979
43.750000	-43.374088
43.875000	-43.777821
44.000000	-58.237171
44.125000	-70.844696
44.250000	-72.665710
44.375000	-73.957626
44.500000	-73.424515
44.625000	-72.518250
44.750000	-72.895996
44.875000	-71.124260
45.000000	-80.676552
45.125000	-70.365822
45.250000	-85.113373
45.375000	-73.845833
45.500000	-74.658867
45.625000	-76.279991
45.750000	-76.053856
45.875000	-69.476013
46.000000	-69.294907
46.125000	-71.755486
46.250000	-77.036491
46.375000	-78.281998
46.500000	-77.073906
46.625000	-79.009323
46.750000	-68.948898
46.875000	-69.568596
47.000000	-74.817673
47.125000	-84.699997
47.250000	-71.375893
47.375000	-69.109718
47.500000	-72.737770
47.625000	-86.680672
47.750000	-72.780029
47.875000	-72.316391
48.000000	-70.465546
48.125000	-66.941261
48.250000	-69.289955
48.375000	-79.174965
48.500000	-70.364449
48.625000	-73.429207
48.750000	-73.082718
48.875000	-71.180893
49.000000	-75.301964
49.125000	-75.175797
49.250000	-100.326271
49.375000	-74.531662
49.500000	-71.764885
49.625000	-67.177208
49.750000	-65.672523
49.875000	-67.477669
50.000000	-67.987312
50.125000	-68.640724
50.250000	-67.916794
50.375000	-77.954575
50.500000	-74.085632
50.625000	-72.956924
50.750000	-77.184303
50.875000	-76.779617
51.000000	-71.094467
51.125000	-76.478981
51.250000	-88.406197
51.375000	-89.797234
51.500000	-79.151192
51.625000	-78.883186
51.750000	-72.020149
51.875000	-71.851624
52.000000	-77.621529
52.125000	-87.383850
52.250000	-89.660423
52.375000	-70.810806
52.500000	-66.211723
52.625000	-67.147018
52.750000	-70.992043
52.875000	-65.994095
53.000000	-68.031166
53.125000	-74.131821
53.250000	-70.045006
53.375000	-70.442093
53.500000	-68.864754
53.625000	-71.414680
53.750000	-79.745750
53.875000	-68.933456
54.000000	-72.452332
54.125000	-78.324951
54.250000	-75.332306
54.375000	-70.437500
54.500000	-70.951653
54.625000	-56.894440
54.750000	-48.519039
54.875000	-52.065979
55.000000	-69.535515
55.125000	-76.749405
55.250000	-71.773636
55.375000	-71.544952
55.500000	-77.145988
55.625000	-71.000298
55.750000	-69.413834
55.875000	-69.122292
56.000000	-78.591164
56.125000	-71.102219
56.250000	-81.975929
56.375000	-78.739899
56.500000	-72.675079
56.625000	-70.953049
56.750000	-76.608467
56.875000	-68.639587
57.000000	-76.773750
57.125000	-70.517464
57.250000	-70.454132
57.375000	-70.833496
57.500000	-74.812820
57.625000	-79.075706
57.750000	-67.688957
57.875000	-72.072426
58.000000	-73.722260
58.125000	-76.207787
58.250000	-67.253334
58.375000	-66.392509
58.500000	-66.109062
58.625000	-70.200653
58.750000	-69.033852
58.875000	-66.880653
59.000000	-66.685326
59.125000	-75.586296
59.250000	-77.347221
59.375000	-74.528275
59.500000	-75.397072
59.625000	-72.881073
59.750000	-63.626469
59.875000	-70.387039
60.000000	-78.789658
60.125000	-71.450462
60.250000	-67.247429
60.375000	-71.576607
60.500000	-68.842545
60.625000	-68.500008
60.750000	-70.612976
60.875000	-73.468964
61.000000	-71.631989
61.125000	-76.397575
61.250000	-71.403656
61.375000	-72.288162
61.500000	-69.326691
61.625000	-73.633568
61.750000	-70.579979
61.875000	-68.839157
62.000000	-70.452644
62.125000	-69.503632
62.250000	-74.189461
62.375000	-69.167717
62.500000	-70.321236
62.625000	-71.354492
62.750000	-76.246529
62.875000	-73.271584
63.000000	-71.515976
63.125000	-75.725716
63.250000	-72.730247
63.375000	-71.408974
63.500000	-73.606064
63.625000	-73.277794
63.750000	-71.614502
63.875000	-72.942696
64.000000	-89.716469
64.125000	-71.191307
64.250000	-71.420212
64.375000	-80.087814
64.500000	-73.219849
64.625000	-86.564163
64.750000	-73.141937
64.875000	-68.308228
65.000000	-73.482903
65.125000	-77.550980
65.250000	-68.560043
65.375000	-71.362808
65.500000	-75.898148
65.625000	-65.234406
65.750000	-62.370354
65.875000	-70.739105
66.000000	-79.207260
66.125000	-73.954277
66.250000	-75.519844
66.375000	-80.631050
66.500000	-75.497688
66.625000	-72.803223
66.750000	-75.798592
66.875000	-72.395363
67.000000	-73.348846
67.125000	-78.729866
67.250000	-83.569710
67.375000	-82.053795
67.500000	-81.365608
67.625000	-73.407967
67.750000	-78.114883
67.875000	-72.819748
68.000000	-70.795830
68.125000	-74.142090
68.250000	-72.202507
68.375000	-71.198929
68.500000	-73.560249
68.625000	-74.843727
68.750000	-79.685158
68.875000	-72.600143
69.000000	-68.916687
69.125000	-75.897301
69.250000	-82.399986
69.375000	-79.830589
69.500000	-73.517746
69.625000	-71.085381
69.750000	-74.413597
69.875000	-76.095665
70.000000	-76.673027
70.125000	-67.873085
70.250000	-68.013634
70.375000	-70.748146
70.500000	-73.475487
70.625000	-74.214310
70.750000	-68.930771
70.875000	-73.195900
71.000000	-71.022720
71.125000	-77.252754
71.250000	-94.494522
71.375000	-76.472374
71.500000	-69.632919
71.625000	-72.176735
71.750000	-78.401115
71.875000	-78.805519
72.000000	-89.774452
72.125000	-81.236717
72.250000	-83.243599
72.375000	-77.725853
72.500000	-73.378838
72.625000	-72.365479
72.750000	-73.486885
72.875000	-92.170166
73.000000	-75.883789
73.125000	-79.260559
73.250000	-76.103821
73.375000	-73.399841
73.500000	-71.967598
73.625000	-75.406830
73.750000	-76.903130
73.875000	-79.688179
74.000000	-76.084938
74.125000	-71.442490
74.250000	-69.798737
74.375000	-76.363129
74.500000	-78.922470
74.625000	-70.684723
74.750000	-70.134155
74.875000	-73.133453
75.000000	-74.281036
75.125000	-74.675720
75.250000	-74.071846
75.375000	-74.607101
75.500000	-78.468864
75.625000	-67.000000
75.750000	-67.072701
75.875000	-73.569839
76.000000	-75.684502
76.125000	-73.095619
76.250000	-89.009216
76.375000	-73.206825
76.500000	-71.905128
76.625000	-68.384827
76.750000	-68.563560
76.875000	-78.561081
77.000000	-83.785500
77.125000	-75.731308
77.250000	-73.177177
77.375000	-71.145752
77.500000	-71.974144
77.625000	-76.444206
77.750000	-75.636452
77.875000	-75.647919
78.000000	-74.585693
78.125000	-75.045418
78.250000	-81.110748
78.375000	-88.340668
78.500000	-73.736565
78.625000	-73.006012
78.750000	-75.630791
78.875000	-75.384308
79.000000	-91.645821
79.125000	-75.025307
79.250000	-78.506004
79.375000	-84.139740
79.500000	-84.788704
79.625000	-77.415146
79.750000	-73.133385
79.875000	-80.770897
80.000000	-77.182091
80.125000	-79.424255
80.250000	-76.587021
80.375000	-71.594994
80.500000	-74.355507
80.625000	-86.598946
80.750000	-77.200630
80.875000	-76.441742
81.000000	-80.043083
81.125000	-74.091873
81.250000	-77.309860
81.375000	-77.919937
81.500000	-72.390739
81.625000	-73.777039
81.750000	-73.816399
81.875000	-78.931953
82.000000	-84.216110
82.125000	-78.614929
82.250000	-80.412666
82.375000	-75.777946
82.500000	-95.507050
82.625000	-76.160332
82.750000	-74.491623
82.875000	-77.286003
83.000000	-80.346390
83.125000	-76.157738
83.250000	-74.490341
83.375000	-83.898941
83.500000	-76.453209
83.625000	-82.960548
83.750000	-77.953735
83.875000	-73.039841
84.000000	-71.499817
84.125000	-77.835342
84.250000	-91.258331
84.375000	-81.064011
84.500000	-75.194649
84.625000	-75.270210
84.750000	-77.592682
84.875000	-83.601929
85.000000	-79.338806
85.125000	-79.188873
85.250000	-76.984818
85.375000	-76.834129
85.500000	-73.901009
85.625000	-75.334648
85.750000	-77.276894
85.875000	-76.412933
86.000000	-73.846214
86.125000	-72.701050
86.250000	-78.191124
86.375000	-74.903534
86.500000	-71.174408
86.625000	-67.951157
86.750000	-74.218277
86.875000	-79.701027
87.000000	-76.801666
87.125000	-76.927719
87.250000	-74.774841
87.375000	-73.691689
87.500000	-70.684265
87.625000	-68.181168
87.750000	-70.976227
87.875000	-72.235100
88.000000	-76.963608
88.125000	-83.159050
88.250000	-80.889961
88.375000	-87.619431
88.500000	-84.373116
88.625000	-76.791817
88.750000	-80.070145
88.875000	-91.137978
89.000000	-83.326149
89.125000	-76.762901
89.250000	-73.959923
89.375000	-77.314842
89.500000	-77.816223
89.625000	-87.740982
89.750000	-84.851418
89.875000	-81.468330
90.000000	-77.773209
90.125000	-75.880875
90.250000	-75.900154
90.375000	-73.152878
90.500000	-73.723724
90.625000	-86.444206
90.750000	-80.088074
90.875000	-73.412651
91.000000	-73.857635
91.125000	-78.511932
91.250000	-90.037971
91.375000	-81.086128
91.500000	-78.523659
91.625000	-80.255325
91.750000	-98.440521
91.875000	-80.431206
92.000000	-82.331879
92.125000	-73.071503
92.250000	-74.662964
92.375000	-75.218842
92.500000	-72.107925
92.625000	-75.941895
92.750000	-79.035782
92.875000	-80.548630
93.000000	-86.610092
93.125000	-77.792213
93.250000	-78.483192
93.375000	-74.918953
93.500000	-80.798187
93.625000	-76.724709
93.750000	-77.772171
93.875000	-78.936150
94.000000	-78.234512
94.125000	-81.712936
94.250000	-81.891403
94.375000	-79.722252
94.500000	-78.755325
94.625000	-76.194290
94.750000	-80.081421
94.875000	-84.507164
95.000000	-93.146484
95.125000	-78.197403
95.250000	-78.599083
95.375000	-81.913383
95.500000	-79.569801
95.625000	-83.149689
95.750000	-84.974983
95.875000	-79.885643
96.000000	-77.179146
96.125000	-84.486435
96.250000	-74.770569
96.375000	-75.462753
96.500000	-78.932381
96.625000	-78.634308
96.750000	-80.560898
96.875000	-77.342003
97.000000	-79.608521
97.125000	-79.466179
97.250000	-74.171150
97.375000	-78.576309
97.500000	-67.406349
97.625000	-64.395752
97.750000	-75.412613
97.875000	-84.868294
98.000000	-86.281631
98.125000	-88.664268
98.250000	-84.671967
98.375000	-85.444450
98.500000	-72.457298
98.625000	-71.257103
98.750000	-86.046577
98.875000	-79.871597
99.000000	-79.483414
99.125000	-76.143814
99.250000	-83.239471
99.375000	-93.341370
99.500000	-84.624420
99.625000	-79.361015
99.750000	-88.873695
99.875000	-77.850174
100.000000	-79.400093
100.125000	-91.110420
100.250000	-81.638428
100.375000	-76.603935
100.500000	-80.785309
100.625000	-90.502922
100.750000	-88.344177
100.875000	-93.693581
101.000000	-93.555855
101.125000	-86.384140
101.250000	-84.499886
101.375000	-79.261864
101.500000	-77.268387
101.625000	-76.502159
101.750000	-83.080528
101.875000	-94.313408
102.000000	-86.870392
102.125000	-76.103065
102.250000	-74.112816
102.375000	-82.178993
102.500000	-80.797890
102.625000	-76.934586
102.750000	-75.650841
102.875000	-76.345230
103.000000	-82.759346
103.125000	-89.405327
103.250000	-79.990105
103.375000	-81.865265
103.500000	-78.263237
103.625000	-82.327110
103.750000	-81.831535
103.875000	-72.492279
104.000000	-74.275627
104.125000	-79.829689
104.250000	-82.420807
104.375000	-80.809105
104.500000	-87.251312
104.625000	-85.875565
104.750000	-85.514359
104.875000	-82.619926
105.000000	-100.270721
105.125000	-80.494011
105.250000	-85.928398
105.375000	-78.946365
105.500000	-74.601799
105.625000	-79.274635
105.750000	-82.250954
105.875000	-84.110535
106.000000	-85.921974
106.125000	-78.741913
106.250000	-84.669617
106.375000	-78.688591
106.500000	-80.270096
106.625000	-80.337135
106.750000	-81.988899
106.875000	-80.674675
107.000000	-83.442726
107.125000	-108.664238
107.250000	-91.080849
107.375000	-86.134125
107.500000	-84.687775
107.625000	-83.561310
107.750000	-86.097397
107.875000	-100.123985
108.000000	-88.379868
108.125000	-82.622353
108.250000	-90.094017
108.375000	-70.600441
108.500000	-60.247932
108.625000	-62.444508
108.750000	-80.446243
108.875000	-84.557678
109.000000	-86.442032
109.125000	-92.200600
109.250000	-94.713707
109.375000	-78.449806
109.500000	-71.371902
109.625000	-73.961388
109.750000	-80.632965
109.875000	-81.853119
110.000000	-89.808136
110.125000	-83.770439
110.250000	-83.593857
110.375000	-83.153984
110.500000	-84.863235
110.625000	-81.571304
110.750000	-88.323837
110.875000	-79.083260
111.000000	-85.188499
111.125000	-82.776985
111.250000	-84.278847
111.375000	-86.697166
111.500000	-80.200645
111.625000	-80.746315
111.750000	-88.329193
111.875000	-87.633080
112.000000	-78.768311
112.125000	-79.036163
112.250000	-90.266876
112.375000	-80.519646
112.500000	-87.543503
112.625000	-85.776627
112.750000	-85.948700
112.875000	-98.834282
113.000000	-85.258263
113.125000	-82.165321
113.250000	-80.633842
113.375000	-91.040649
113.500000	-97.018036
113.625000	-89.501663
113.750000	-87.943321
113.875000	-89.518997
114.000000	-99.954361
114.125000	-90.138908
114.250000	-84.937141
114.375000	-82.910286
114.500000	-78.948212
114.625000	-79.988655
114.750000	-92.034660
114.875000	-81.955635
115.000000	-82.525444
115.125000	-80.136330
115.250000	-77.135033
115.375000	-79.176437
115.500000	-80.256737
115.625000	-79.141296
115.750000	-81.346954
115.875000	-86.649681
116.000000	-88.117569
116.125000	-106.374771
116.250000	-102.883575
116.375000	-92.871643
116.500000	-79.617302
116.625000	-78.197716
116.750000	-81.866348
116.875000	-79.504372
117.000000	-81.260773
117.125000	-85.111374
117.250000	-81.598488
117.375000	-87.609406
117.500000	-80.167000
117.625000	-80.272415
117.750000	-81.308632
117.875000	-77.717705
118.000000	-83.167336
118.125000	-81.736267
118.250000	-81.849892
118.375000	-78.577255
118.500000	-81.382271
118.625000	-89.810791
118.750000	-94.033669
118.875000	-87.707619
119.000000	-85.613884
119.125000	-84.781914
119.250000	-74.083313
119.375000	-43.482681
119.500000	-38.723263
119.625000	-46.065922
119.750000	-78.577629
119.875000	-85.730339
120.000000	-86.339798
120.125000	-87.710144
120.250000	-85.088051
120.375000	-85.181679
120.500000	-78.857666
120.625000	-80.291862
120.750000	-81.678635
120.875000	-91.276863
121.000000	-90.030479
121.125000	-86.590469
121.250000	-81.372353
121.375000	-82.117188
121.500000	-104.009911
121.625000	-80.874962
121.750000	-82.666748
121.875000	-81.314201
122.000000	-75.356750
122.125000	-76.209900
122.250000	-84.739723
122.375000	-94.783028
122.500000	-87.236893
122.625000	-86.586250
122.750000	-88.491463
122.875000	-86.157372
123.000000	-88.983116
123.125000	-82.606918
123.250000	-83.492775
123.375000	-80.596504
123.500000	-83.969131
123.625000	-83.343498
123.750000	-82.490761
123.875000	-111.020943
124.000000	-91.086769
124.125000	-99.608879
124.250000	-92.081223
124.375000	-92.589401
124.500000	-84.945587
124.625000	-84.413673
124.750000	-91.783096
124.875000	-84.214111
125.000000	-87.821564
125.125000	-92.775093
125.250000	-91.184731
125.375000	-86.649796
125.500000	-88.041046
125.625000	-90.407463
125.750000	-88.708710
125.875000	-89.686523
126.000000	-94.874306
126.125000	-96.210037
126.250000	-90.286148
126.375000	-85.437988
126.500000	-89.858955
126.625000	-92.239708
126.750000	-87.976265
126.875000	-81.672531
127.000000	-80.940491
127.125000	-84.321312
127.250000	-86.778900
127.375000	-80.982704
127.500000	-79.542770
127.625000	-90.495834
127.750000	-86.353569
127.875000	-88.789162
128.000000	-94.548615
128.125000	-83.958206
128.250000	-81.693733
128.375000	-83.123177
128.500000	-89.208954
128.625000	-94.591934
128.750000	-85.899620
128.875000	-88.701035
129.000000	-80.513405
129.125000	-78.626381
129.250000	-84.320900
129.375000	-87.840187
129.500000	-83.507271
129.625000	-80.956841
129.750000	-83.097824
129.875000	-104.857124
130.000000	-89.243141
130.125000	-94.341537
130.250000	-74.333649
130.375000	-61.846619
130.500000	-61.751259
130.625000	-74.210350
130.750000	-89.077873
130.875000	-84.264153
131.000000	-92.523048
131.125000	-89.145889
131.250000	-88.464424
131.375000	-99.006836
131.500000	-86.401001
131.625000	-82.443687
131.750000	-86.340416
131.875000	-88.123268
132.000000	-79.108368
132.125000	-85.047272
132.250000	-89.611412
132.375000	-85.866638
132.500000	-80.901794
132.625000	-83.749069
132.750000	-90.909554
132.875000	-90.079201
133.000000	-95.251221
133.125000	-86.446220
133.250000	-86.672119
133.375000	-93.468819
133.500000	-84.854691
133.625000	-83.283325
133.750000	-88.322922
133.875000	-86.913368
134.000000	-85.415230
134.125000	-84.672249
134.250000	-81.851326
134.375000	-84.175812
134.500000	-89.632622
134.625000	-93.556633
134.750000	-93.816704
134.875000	-98.412819
135.000000	-84.383842
135.125000	-89.257683
135.250000	-92.875732
135.375000	-92.814301
135.500000	-88.986649
135.625000	-84.938362
135.750000	-87.680229
135.875000	-86.534843
136.000000	-91.231285
136.125000	-98.791138
136.250000	-91.546997
136.375000	-89.387703
136.500000	-95.297867
136.625000	-98.556480
136.750000	-83.725983
136.875000	-81.872581
137.000000	-91.357292
137.125000	-83.777870
137.250000	-83.052376
137.375000	-86.472954
137.500000	-89.304512
137.625000	-89.792450
137.750000	-92.214699
137.875000	-87.625916
138.000000	-89.519180
138.125000	-95.908615
138.250000	-86.991432
138.375000	-85.172272
138.500000	-88.903114
138.625000	-88.246353
138.750000	-93.508484
138.875000	-100.952194
139.000000	-100.708511
139.125000	-90.477432
139.250000	-88.417717
139.375000	-92.236961
139.500000	-89.593506
139.625000	-86.410927
139.750000	-88.265999
139.875000	-87.972054
140.000000	-90.095009
140.125000	-88.566757
140.250000	-82.775673
140.375000	-84.057144
140.500000	-93.611755
140.625000	-92.734268
140.750000	-86.910866
140.875000	-85.820663
141.000000	-86.068031
141.125000	-83.207886
141.250000	-70.577484
141.375000	-62.452797
141.500000	-66.359749
141.625000	-82.861382
141.750000	-97.872719
141.875000	-88.201469
142.000000	-89.974236
142.125000	-94.339828
142.250000	-92.610733
142.375000	-84.469414
142.500000	-88.365700
142.625000	-86.758820
142.750000	-88.418404
142.875000	-89.664108
143.000000	-87.427673
143.125000	-92.499741
143.250000	-89.617172
143.375000	-90.198822
143.500000	-110.205894
143.625000	-92.702003
143.750000	-87.416862
143.875000	-84.622269
144.000000	-82.899521
144.125000	-81.788826
144.250000	-85.218559
144.375000	-90.219582
144.500000	-88.529213
144.625000	-90.848854
144.750000	-88.797501
144.875000	-88.092270
145.000000	-86.143105
145.125000	-86.184166
145.250000	-91.935974
145.375000	-96.534576
145.500000	-89.846924
145.625000	-87.297523
145.750000	-90.350952
145.875000	-91.760338
146.000000	-87.882690
146.125000	-97.029213
146.250000	-87.320831
146.375000	-90.501625
146.500000	-95.096359
146.625000	-90.631554
146.750000	-94.850723
146.875000	-94.325829
147.000000	-87.217140
147.125000	-86.058907
147.250000	-95.901978
147.375000	-85.606339
147.500000	-95.899200
147.625000	-87.427452
147.750000	-87.461395
147.875000	-88.457123
148.000000	-88.797119
148.125000	-84.689766
148.250000	-88.825920
148.375000	-107.431633
148.500000	-93.584480
148.625000	-95.630890
148.750000	-90.593819
148.875000	-90.447227
149.000000	-94.536148
149.125000	-89.578857
149.250000	-86.821838
149.375000	-94.456734
149.500000	-85.468597
149.625000	-82.957291
149.750000	-86.275055
149.875000	-84.493004
150.000000	-90.840881
150.125000	-95.722618
150.250000	-88.027603
150.375000	-84.789223
150.500000	-83.473877
150.625000	-83.940483
150.750000	-82.623589
150.875000	-83.887787
151.000000	-96.338127
151.125000	-84.360405
151.250000	-83.579155
151.375000	-89.318329
151.500000	-92.702042
151.625000	-96.859909
151.750000	-106.677200
151.875000	-101.531998
152.000000	-96.230453
152.125000	-93.299644
152.250000	-72.495491
152.375000	-68.528473
152.500000	-77.304115
152.625000	-94.548767
152.750000	-97.451515
152.875000	-99.068024
153.000000	-93.089676
153.125000	-91.137451
153.250000	-81.248116
153.375000	-82.650543
153.500000	-89.316383
153.625000	-91.688469
153.750000	-93.044342
153.875000	-90.731049
154.000000	-98.825264
154.125000	-97.882179
154.250000	-90.823753
154.375000	-86.892509
154.500000	-85.283676
154.625000	-88.956848
154.750000	-93.835716
154.875000	-90.460960
155.000000	-88.591080
155.125000	-96.052750
155.250000	-96.977829
155.375000	-96.604851
155.500000	-91.485710
155.625000	-89.272820
155.750000	-90.683472
155.875000	-89.741722
156.000000	-96.433693
156.125000	-87.690414
156.250000	-87.830162
156.375000	-92.108711
156.500000	-97.838486
156.625000	-96.846352
156.750000	-92.345207
156.875000	-100.359177
157.000000	-102.486542
157.125000	-99.949570
157.250000	-98.533470
157.375000	-94.508881
157.500000	-99.434036
157.625000	-86.817375
157.750000	-86.366470
157.875000	-98.710693
158.000000	-96.358917
158.125000	-98.553894
158.250000	-94.713257
158.375000	-89.105492
158.500000	-90.608276
158.625000	-96.239120
158.750000	-97.759079
158.875000	-98.615814
159.000000	-92.766281
159.125000	-106.192703
159.250000	-100.832169
159.375000	-90.724258
159.500000	-93.235046
159.625000	-94.876968
159.750000	-99.222565
159.875000	-94.306618
160.000000	-95.087074
160.125000	-98.257095
160.250000	-106.012161
160.375000	-103.366310
160.500000	-97.181679
160.625000	-99.361252
160.750000	-105.220650
160.875000	-94.637337
161.000000	-95.872009
161.125000	-105.076225
161.250000	-94.442711
161.375000	-88.198387
161.500000	-88.608986
161.625000	-87.768959
161.750000	-87.089104
161.875000	-88.484253
162.000000	-88.873039
162.125000	-84.395714
162.250000	-89.161270
162.375000	-100.114449
162.500000	-100.054413
162.625000	-102.099945
162.750000	-88.846252
162.875000	-86.711159
163.000000	-92.682510
163.125000	-87.966103
163.250000	-74.832878
163.375000	-75.519516
163.500000	-88.175858
163.625000	-91.508377
163.750000	-83.413422
163.875000	-83.682236
164.000000	-88.424675
164.125000	-91.114235
164.250000	-86.805382
164.375000	-85.529327
164.500000	-93.873260
164.625000	-95.830101
164.750000	-101.232124
164.875000	-97.089211
165.000000	-90.498390
165.125000	-94.553520
165.250000	-94.275352
165.375000	-86.632133
165.500000	-89.747276
165.625000	-95.783913
165.750000	-95.234978
165.875000	-106.397484
166.000000	-118.156448
166.125000	-94.561104
166.250000	-90.040894
166.375000	-94.042183
166.500000	-100.081230
166.625000	-89.852715
166.750000	-86.527748
166.875000	-96.553940
167.000000	-90.718010
167.125000	-92.692467
167.250000	-104.608841
167.375000	-86.379448
167.500000	-85.998024
167.625000	-91.065681
167.750000	-92.219131
167.875000	-95.421120
168.000000	-90.883820
168.125000	-85.288452
168.250000	-83.994530
168.375000	-88.506081
168.500000	-90.012482
168.625000	-88.892715
168.750000	-90.912392
168.875000	-93.097221
169.000000	-92.727097
169.125000	-98.280495
169.250000	-92.996758
169.375000	-94.556244
169.500000	-89.384605
169.625000	-93.540672
169.750000	-92.526329
169.875000	-95.216919
170.000000	-96.628006
170.125000	-99.163895
170.250000	-101.088226
170.375000	-103.886604
170.500000	-99.175873
170.625000	-102.024658
170.750000	-93.438652
170.875000	-93.025078
171.000000	-96.408546
171.125000	-99.871536
171.250000	-92.024612
171.375000	-90.633842
171.500000	-92.874382
171.625000	-95.367416
171.750000	-91.140610
171.875000	-88.161224
172.000000	-95.571800
172.125000	-94.041061
172.250000	-94.620903
172.375000	-97.730553
172.500000	-95.703384
172.625000	-98.749176
172.750000	-106.045982
172.875000	-102.266533
173.000000	-98.144478
173.125000	-97.871033
173.250000	-99.417419
173.375000	-101.963829
173.500000	-104.944107
173.625000	-98.632011
173.750000	-92.376312
173.875000	-91.511093
174.000000	-108.427948
174.125000	-92.198578
174.250000	-90.951469
174.375000	-97.448181
174.500000	-100.699791
174.625000	-93.589996
174.750000	-106.977371
174.875000	-87.858505
175.000000	-88.142853
175.125000	-96.432045
175.250000	-101.581116
175.375000	-97.595291
175.500000	-93.120766
175.625000	-99.345955
175.750000	-98.743958
175.875000	-98.910301
176.000000	-96.844955
176.125000	-93.889610
176.250000	-89.306839
176.375000	-88.888046
176.500000	-87.199699
176.625000	-84.713974
176.750000	-86.014656
176.875000	-89.910820
177.000000	-96.332817
177.125000	-93.005760
177.250000	-92.140167
177.375000	-87.510658
177.500000	-92.552673
177.625000	-90.925240
177.750000	-90.468910
177.875000	-94.842484
178.000000	-89.596558
178.125000	-92.185089
178.250000	-109.938568
178.375000	-99.991737
178.500000	-92.957680
178.625000	-89.576683
178.750000	-92.782982
178.875000	-102.079712
179.000000	-97.024376
179.125000	-71.706749
179.250000	-67.438316
179.375000	-75.954521
179.500000	-90.583702
179.625000	-93.539635
179.750000	-95.353943
179.875000	-95.423172
180.000000	-97.055115
180.125000	-101.635117
180.250000	-94.887718
180.375000	-89.977097
180.500000	-101.777779
180.625000	-88.891830
180.750000	-92.419701
180.875000	-92.527061
181.000000	-87.414391
181.125000	-87.472206
181.250000	-90.343491
181.375000	-89.656593
181.500000	-89.800781
181.625000	-94.275261
181.750000	-90.135757
181.875000	-88.724174
182.000000	-102.047569
182.125000	-94.776344
182.250000	-99.899696
182.375000	-94.827042
182.500000	-90.058220
182.625000	-92.096886
182.750000	-89.469818
182.875000	-89.457970
183.000000	-97.156570
183.125000	-97.708633
183.250000	-100.638962
183.375000	-91.930183
183.500000	-89.413582
183.625000	-89.602417
183.750000	-94.275185
183.875000	-95.870987
184.000000	-92.660362
184.125000	-97.879333
184.250000	-98.036041
184.375000	-90.826546
184.500000	-93.027611
184.625000	-96.713394
184.750000	-92.112396
184.875000	-93.767418
185.000000	-97.399307
185.125000	-97.607315
185.250000	-94.854477
185.375000	-87.875854
185.500000	-86.978180
185.625000	-91.192802
185.750000	-92.194481
185.875000	-98.906616
186.000000	-91.141922
186.125000	-88.768745
186.250000	-87.598824
186.375000	-89.648285
186.500000	-105.346466
186.625000	-91.669487
186.750000	-93.608650
186.875000	-90.379089
187.000000	-92.768776
187.125000	-106.750076
187.250000	-92.814125
187.375000	-96.098923
187.500000	-95.988556
187.625000	-97.812340
187.750000	-121.229759
187.875000	-95.744934
188.000000	-92.546570
188.125000	-95.029999
188.250000	-97.651924
188.375000	-93.658829
188.500000	-96.645958
188.625000	-94.063896
188.750000	-91.306404
188.875000	-93.621635
189.000000	-98.693565
189.125000	-87.872734
189.250000	-87.414993
189.375000	-95.661438
189.500000	-107.410950
189.625000	-100.169441
189.750000	-96.378220
189.875000	-97.045975
190.000000	-96.775177
190.125000	-87.809258
190.250000	-87.797905
190.375000	-93.920746
190.500000	-86.893013
190.625000	-89.796844
190.750000	-105.900558
190.875000	-101.132935
191.000000	-96.874969
191.125000	-92.527885
191.250000	-91.004059
191.375000	-91.400520
191.500000	-94.894402
191.625000	-96.970406
191.750000	-92.266014
191.875000	-104.586578
192.000000	-109.580704
192.125000	-98.707733
192.250000	-95.911324
192.375000	-102.910728
192.500000	-105.101997
192.625000	-97.061264
192.750000	-89.876846
192.875000	-93.740456
193.000000	-93.488701
193.125000	-91.624931
193.250000	-91.933235
193.375000	-93.646240
193.500000	-93.884712
193.625000	-93.946548
193.750000	-96.029251
193.875000	-97.256638
194.000000	-93.904488
194.125000	-98.396385
194.250000	-103.232643
194.375000	-100.028915
194.500000	-100.998627
194.625000	-96.717064
194.750000	-97.259682
194.875000	-95.233292
195.000000	-92.737617
195.125000	-94.903969
195.250000	-93.903191
195.375000	-93.723518
195.500000	-98.199677
195.625000	-93.756981
195.750000	-92.454910
195.875000	-100.349655
196.000000	-105.562469
196.125000	-90.982430
196.250000	-89.171440
196.375000	-88.387604
196.500000	-101.167389
196.625000	-100.588715
196.750000	-98.184837
196.875000	-107.556168
197.000000	-98.033730
197.125000	-96.025818
197.250000	-99.070244
197.375000	-96.358719
197.500000	-93.683403
197.625000	-96.709923
197.750000	-100.660233
197.875000	-99.040474
198.000000	-89.166832
198.125000	-86.876144
198.250000	-92.513474
198.375000	-96.535118
198.500000	-96.581062
198.625000	-100.144897
198.750000	-91.232147
198.875000	-96.348228
199.000000	-95.149208
199.125000	-95.766899
199.250000	-93.245850
199.375000	-104.381554
199.500000	-99.927864
199.625000	-91.164619
199.750000	-96.868172
199.875000	-93.809258
200.000000	-89.850258
200.125000	-91.009064
200.250000	-98.119728
200.375000	-91.778313
200.500000	-91.552750
200.625000	-92.854416
200.750000	-99.282036
200.875000	-94.932449
201.000000	-92.734779
201.125000	-85.922997
201.250000	-86.125313
201.375000	-87.255440
201.500000	-90.882332
201.625000	-96.426003
201.750000	-97.574425
201.875000	-102.001831
202.000000	-95.461525
202.125000	-101.692924
202.250000	-96.899200
202.375000	-97.917290
202.500000	-102.334351
202.625000	-116.696098
202.750000	-91.884598
202.875000	-95.297234
203.000000	-95.844505
203.125000	-103.444122
203.250000	-90.540619
203.375000	-95.308624
203.500000	-86.812866
203.625000	-88.830200
203.750000	-93.794334
203.875000	-87.566017
204.000000	-91.209274
204.125000	-97.656273
204.250000	-98.916939
204.375000	-107.186401
204.500000	-94.342529
204.625000	-91.386299
204.750000	-93.705551
204.875000	-91.427040
205.000000	-105.665123
205.125000	-94.909081
205.250000	-93.167404
205.375000	-92.423851
205.500000	-96.388191
205.625000	-91.378059
205.750000	-94.929955
205.875000	-104.100334
206.000000	-94.295776
206.125000	-93.966232
206.250000	-99.701637
206.375000	-100.027283
206.500000	-96.514610
206.625000	-97.170303
206.750000	-107.907654
206.875000	-117.273415
207.000000	-96.676193
207.125000	-88.156441
207.250000	-91.531044
207.375000	-99.584061
207.500000	-95.095222
207.625000	-94.400917
207.750000	-100.212425
207.875000	-96.882408
208.000000	-98.711464
208.125000	-97.260277
208.250000	-96.384346
208.375000	-97.666885
208.500000	-99.642731
208.625000	-104.455353
208.750000	-108.316277
208.875000	-94.858078
209.000000	-94.251480
209.125000	-100.421509
209.250000	-91.141800
209.375000	-90.356041
209.500000	-91.519569
209.625000	-90.959801
209.750000	-106.518066
209.875000	-89.789810
210.000000	-90.703636
210.125000	-105.284454
210.250000	-97.871414
210.375000	-113.573517
210.500000	-94.310051
210.625000	-101.191101
210.750000	-101.124672
210.875000	-116.633102
211.000000	-97.898750
211.125000	-101.623398
211.250000	-97.802963
211.375000	-114.230621
211.500000	-95.753288
211.625000	-88.645348
211.750000	-89.127831
211.875000	-92.970657
212.000000	-96.971138
212.125000	-95.936554
212.250000	-96.881126
212.375000	-96.767479
212.500000	-93.624710
212.625000	-99.072350
212.750000	-106.096664
212.875000	-100.138893
213.000000	-96.135307
213.125000	-91.999962
213.250000	-83.405914
213.375000	-85.703423
213.500000	-96.574944
213.625000	-93.834793
213.750000	-98.058426
213.875000	-101.357216
214.000000	-94.817924
214.125000	-96.610817
214.250000	-94.390953
214.375000	-107.039955
214.500000	-98.307930
214.625000	-93.699982
214.750000	-100.143143
214.875000	-95.843979
215.000000	-91.312035
215.125000	-90.823303
215.250000	-92.181572
215.375000	-92.331261
215.500000	-98.718521
215.625000	-102.622513
215.750000	-103.799416
215.875000	-96.440010
216.000000	-100.178146
216.125000	-98.672157
216.250000	-90.972313
216.375000	-93.977211
216.500000	-94.272491
216.625000	-97.971931
216.750000	-95.033180
216.875000	-88.172844
217.000000	-84.628891
217.125000	-86.950768
217.250000	-96.047119
217.375000	-98.356400
217.500000	-112.241165
217.625000	-93.812111
217.750000	-93.320168
217.875000	-91.692703
218.000000	-92.806931
218.125000	-94.620422
218.250000	-90.073257
218.375000	-93.783020
218.500000	-100.243805
218.625000	-102.299828
218.750000	-103.433517
218.875000	-97.523277
219.000000	-92.601494
219.125000	-88.909119
219.250000	-95.890228
219.375000	-101.245575
219.500000	-95.796310
219.625000	-92.086266
219.750000	-99.571243
219.875000	-94.006248
220.000000	-89.567223
220.125000	-94.046288
220.250000	-104.993927
220.375000	-97.996429
220.500000	-95.475273
220.625000	-93.989349
220.750000	-93.318199
220.875000	-93.324219
221.000000	-106.758026
221.125000	-98.723465
221.250000	-96.979218
221.375000	-99.373550
221.500000	-99.901840
221.625000	-102.195221
221.750000	-96.093094
221.875000	-103.555641
222.000000	-95.550896
222.125000	-87.852127
222.250000	-86.428520
222.375000	-90.679092
222.500000	-96.539528
222.625000	-92.811584
222.750000	-98.846619
222.875000	-99.011520
223.000000	-90.291595
223.125000	-90.303551
223.250000	-91.229584
223.375000	-97.484634
223.500000	-105.293358
223.625000	-93.646523
223.750000	-94.043617
223.875000	-100.512604
224.000000	-97.401863
224.125000	-94.344681
224.250000	-91.862190
224.375000	-92.550308
224.500000	-97.812439
224.625000	-103.527794
224.750000	-96.622757
224.875000	-92.692627
225.000000	-97.832565
225.125000	-99.189423
225.250000	-92.306496
225.375000	-90.912720
225.500000	-89.536804
225.625000	-91.971130
225.750000	-105.469864
225.875000	-102.025726
226.000000	-101.991547
226.125000	-101.108040
226.250000	-93.078323
226.375000	-91.432495
226.500000	-96.852013
226.625000	-102.867676
226.750000	-100.033363
226.875000	-94.274696
227.000000	-88.495590
227.125000	-86.709778
227.250000	-88.317612
227.375000	-101.366058
227.500000	-92.264687
227.625000	-90.190208
227.750000	-93.952156
227.875000	-91.032951
228.000000	-85.821068
228.125000	-90.167854
228.250000	-108.254768
228.375000	-93.767052
228.500000	-90.540215
228.625000	-92.412773
228.750000	-107.838470
228.875000	-100.385170
229.000000	-98.070381
229.125000	-98.685974
229.250000	-95.738586
229.375000	-109.744400
229.500000	-108.160950
229.625000	-96.972809
229.750000	-95.050713
229.875000	-95.138702
230.000000	-95.360664
230.125000	-112.578758
230.250000	-105.670319
230.375000	-100.253807
230.500000	-95.650696
230.625000	-93.354797
230.750000	-97.825027
230.875000	-97.204468
231.000000	-99.809715
231.125000	-94.265732
231.250000	-90.982849
231.375000	-94.087379
231.500000	-103.447807
231.625000	-105.039856
231.750000	-98.559624
231.875000	-93.195412
232.000000	-93.124336
232.125000	-99.934692
232.250000	-101.314568
232.375000	-93.311234
232.500000	-91.669487
232.625000	-97.990791
232.750000	-97.587547
232.875000	-88.758751
233.000000	-96.093414
233.125000	-97.541740
233.250000	-92.232079
233.375000	-94.222794
233.500000	-98.024582
233.625000	-96.662064
233.750000	-100.786118
233.875000	-107.887222
234.000000	-94.898140
234.125000	-91.735115
234.250000	-94.523552
234.375000	-114.570892
234.500000	-106.609985
234.625000	-107.449173
234.750000	-94.113937
234.875000	-90.740532
235.000000	-95.386742
235.125000	-104.579071
235.250000	-96.105515
235.375000	-92.437584
235.500000	-91.462135
235.625000	-91.156837
235.750000	-90.702362
235.875000	-92.906578
236.000000	-95.261726
236.125000	-98.294014
236.250000	-94.951340
236.375000	-94.098373
236.500000	-103.378937
236.625000	-93.806763
236.750000	-94.220779
236.875000	-95.074982
237.000000	-100.931740
237.125000	-99.750153
237.250000	-100.419960
237.375000	-107.359863
237.500000	-104.001114
237.625000	-100.190559
237.750000	-92.342720
237.875000	-92.624580
238.000000	-100.064957
238.125000	-105.602654
238.250000	-99.598297
238.375000	-92.318596
238.500000	-95.583458
238.625000	-102.284172
238.750000	-92.022949
238.875000	-68.503937
239.000000	-65.067421
239.125000	-74.079041
239.250000	-98.638062
239.375000	-98.498909
239.500000	-93.318428
239.625000	-91.323845
239.750000	-92.912926
239.875000	-98.776222
240.000000	-105.647789
240.125000	-91.245346
240.250000	-90.327217
240.375000	-96.409096
240.500000	-96.559769
240.625000	-108.631851
240.750000	-101.034897
240.875000	-105.243668
241.000000	-110.896866
241.125000	-104.330452
241.250000	-94.471039
241.375000	-94.699432
241.500000	-100.784088
241.625000	-96.777809
241.750000	-95.585205
241.875000	-100.263847
242.000000	-101.369202
242.125000	-97.487648
242.250000	-97.387070
242.375000	-95.182777
242.500000	-99.074608
242.625000	-100.195381
242.750000	-102.453415
242.875000	-102.616920
243.000000	-99.453224
243.125000	-96.087822
243.250000	-97.217598
243.375000	-98.289154
243.500000	-98.287621
243.625000	-99.380409
243.750000	-100.258308
243.875000	-93.080704
244.000000	-98.608292
244.125000	-129.964828
244.250000	-109.355873
244.375000	-102.025658
244.500000	-103.307014
244.625000	-110.667847
244.750000	-111.047745
244.875000	-98.870270
245.000000	-98.853432
245.125000	-102.934669
245.250000	-101.387901
245.375000	-99.196510
245.500000	-109.978706
245.625000	-98.463066
245.750000	-93.037247
245.875000	-94.180695
246.000000	-108.813667
246.125000	-97.524460
246.250000	-96.887352
246.375000	-92.888008
246.500000	-107.692284
246.625000	-94.274170
246.750000	-114.026962
246.875000	-92.590279
247.000000	-94.540009
247.125000	-113.806572
247.250000	-102.081306
247.375000	-97.869537
247.500000	-100.994499
247.625000	-98.645065
247.750000	-92.431648
247.875000	-98.845596
248.000000	-103.544334
248.125000	-113.469696
248.250000	-99.903831
248.375000	-104.442825
248.500000	-104.201782
248.625000	-100.176872
248.750000	-105.158455
248.875000	-94.249321
249.000000	-91.904991
249.125000	-92.067680
249.250000	-93.063499
249.375000	-101.852821
249.500000	-98.761635
249.625000	-94.946922
249.750000	-95.293396
249.875000	-87.005333
250.000000	-91.030197
250.125000	-101.865433
250.250000	-95.285072
250.375000	-91.392464
250.500000	-90.174644
250.625000	-92.862358
250.750000	-101.454597
250.875000	-99.845055
251.000000	-96.135658
251.125000	-89.045860
251.250000	-91.121040
251.375000	-89.639053
251.500000	-98.222542
251.625000	-94.710426
251.750000	-90.816048
251.875000	-93.939041
252.000000	-101.091057
252.125000	-102.986168
252.250000	-99.831429
252.375000	-97.259377
252.500000	-108.161240
252.625000	-96.573936
252.750000	-93.363281
252.875000	-93.253090
253.000000	-98.372780
253.125000	-98.750977
253.250000	-96.130104
253.375000	-96.955444
253.500000	-95.249130
253.625000	-94.237595
253.750000	-112.186241
253.875000	-92.972267
254.000000	-87.840698
254.125000	-90.096046
254.250000	-93.609146
254.375000	-108.536781
254.500000	-98.876030
254.625000	-90.202530
254.750000	-93.123802
254.875000	-98.301125
255.000000	-93.465233
255.125000	-93.288017
255.250000	-94.041100
255.375000	-101.563736
255.500000	-103.110085
255.625000	-117.943291
255.750000	-93.024063
255.875000	-93.137093
