Frequency (Hz)	Level (dB)
0.125000	-31.700724
0.250000	-66.837982
0.375000	-65.629265
0.500000	-70.782036
0.625000	-71.600533
0.750000	-66.456985
0.875000	-69.804741
1.000000	-69.381187
1.125000	-72.128799
1.250000	-77.663116
1.375000	-74.285362
1.500000	-68.914375
1.625000	-72.907982
1.750000	-76.182404
1.875000	-68.375229
2.000000	-72.474876
2.125000	-69.390434
2.250000	-73.376213
2.375000	-71.194374
2.500000	-74.364601
2.625000	-78.592346
2.750000	-60.863621
2.875000	-55.582798
3.000000	-57.260235
3.125000	-69.893829
3.250000	-64.632156
3.375000	-66.950760
3.500000	-59.860123
3.625000	-58.603832
3.750000	-60.301579
3.875000	-63.713589
4.000000	-61.731758
4.125000	-69.661713
4.250000	-62.677387
4.375000	-57.908672
4.500000	-51.646641
4.625000	-43.513474
4.750000	-30.337442
4.875000	-6.100548
5.000000	-2.257269
5.125000	-10.638264
5.250000	-36.233768
5.375000	-46.381737
5.500000	-55.193398
5.625000	-58.173115
5.750000	-72.441422
5.875000	-65.248306
6.000000	-72.452896
6.125000	-64.586113
6.250000	-67.620911
6.375000	-67.799400
6.500000	-67.446854
6.625000	-66.401276
6.750000	-72.050911
6.875000	-71.393417
7.000000	-69.867210
7.125000	-63.383484
7.250000	-64.929443
7.375000	-67.936958
7.500000	-68.739128
7.625000	-65.837639
7.750000	-65.751427
7.875000	-69.474434
8.000000	-73.629135
8.125000	-70.136673
8.250000	-75.294029
8.375000	-68.957458
8.500000	-63.749767
8.625000	-65.370132
8.750000	-69.231918
8.875000	-72.368851
9.000000	-67.658195
9.125000	-68.648239
9.250000	-77.593224
9.375000	-89.038765
9.500000	-80.207558
9.625000	-75.484062
9.750000	-71.856590
9.875000	-56.927650
10.000000	-54.170124
10.125000	-61.435448
10.250000	-65.845703
10.375000	-69.847824
10.500000	-71.851219
10.625000	-72.128197
10.750000	-82.508232
10.875000	-72.159561
11.000000	-77.893730
11.125000	-74.419655
11.250000	-67.366699
11.375000	-66.953094
11.500000	-71.550514
11.625000	-67.610115
11.750000	-65.892670
11.875000	-68.963997
12.000000	-68.152237
12.125000	-69.946136
12.250000	-72.752235
12.375000	-67.132133
12.500000	-73.665321
12.625000	-74.518372
12.750000	-71.353676
12.875000	-65.777199
13.000000	-73.203148
13.125000	-82.596954
13.250000	-84.733772
13.375000	-71.690948
13.500000	-70.671799
13.625000	-75.839638
13.750000	-73.059601
13.875000	-70.962791
14.000000	-69.747841
14.125000	-67.895096
14.250000	-69.486313
14.375000	-70.142067
14.500000	-75.675613
14.625000	-70.734352
14.750000	-65.489204
14.875000	-50.013279
15.000000	-49.967468
15.125000	-64.243721
15.250000	-67.761406
15.375000	-66.454765
15.500000	-69.769135
15.625000	-70.248703
15.750000	-63.847443
15.875000	-66.371147
16.000000	-76.285789
16.125000	-71.931931
16.250000	-67.539581
16.375000	-67.711914
16.500000	-71.165352
16.625000	-74.519058
16.750000	-69.071800
16.875000	-68.545349
17.000000	-70.874817
17.125000	-69.484093
17.250000	-78.184601
17.375000	-73.168533
17.500000	-70.577896
17.625000	-76.668480
17.750000	-75.900421
17.875000	-73.032867
18.000000	-87.103806
18.125000	-81.914185
18.250000	-78.274696
18.375000	-81.673874
18.500000	-75.496056
18.625000	-71.314636
18.750000	-67.131973
18.875000	-75.265518
19.000000	-69.311317
19.125000	-70.920288
19.250000	-80.660088
19.375000	-80.603378
19.500000	-78.354630
19.625000	-72.967438
19.750000	-64.986313
19.875000	-59.693939
20.000000	-62.970364
20.125000	-75.258919
20.250000	-66.200966
20.375000	-70.388885
20.500000	-88.837746
20.625000	-84.057510
20.750000	-80.551193
20.875000	-73.891556
21.000000	-69.657242
21.125000	-68.715271
21.250000	-76.232162
21.375000	-73.871994
21.500000	-69.225716
21.625000	-69.510284
21.750000	-75.561172
21.875000	-77.020691
22.000000	-91.614937
22.125000	-83.477776
22.250000	-73.724861
22.375000	-74.819626
22.500000	-71.038193
22.625000	-68.242348
22.750000	-72.270424
22.875000	-78.881157
23.000000	-71.917191
23.125000	-72.392517
23.250000	-72.586746
23.375000	-80.135368
23.500000	-78.186897
23.625000	-73.703629
23.750000	-73.975624
23.875000	-86.974648
24.000000	-77.431778
24.125000	-76.279610
24.250000	-77.955666
24.375000	-73.844200
24.500000	-75.802162
24.625000	-81.542168
24.750000	-67.948318
24.875000	-64.328568
25.000000	-66.554459
25.125000	-72.991112
25.250000	-84.428200
25.375000	-75.814407
25.500000	-71.828918
25.625000	-73.450439
25.750000	-80.212662
25.875000	-70.474823
26.000000	-75.360840
26.125000	-73.737465
26.250000	-78.248711
26.375000	-84.050568
26.500000	-82.791496
26.625000	-86.575844
26.750000	-72.990196
26.875000	-68.158775
27.000000	-70.998634
27.125000	-68.907509
27.250000	-72.123245
27.375000	-75.763992
27.500000	-76.248436
27.625000	-81.572655
27.750000	-78.595734
27.875000	-71.469040
28.000000	-78.755409
28.125000	-72.858597
28.250000	-77.238579
28.375000	-77.484444
28.500000	-73.811661
28.625000	-81.173546
28.750000	-81.529648
28.875000	-85.690437
29.000000	-77.140518
29.125000	-70.575386
29.250000	-68.360870
29.375000	-70.751945
29.500000	-74.884590
29.625000	-73.907234
29.750000	-68.316795
29.875000	-69.017487
30.000000	-78.266243
30.125000	-74.820244
30.250000	-84.060905
30.375000	-73.999535
30.500000	-72.484154
30.625000	-73.702713
30.750000	-72.625282
30.875000	-69.522057
31.000000	-66.656761
31.125000	-71.134171
31.250000	-90.557640
31.375000	-81.448074
31.500000	-76.682663
31.625000	-70.785248
31.750000	-69.789207
31.875000	-66.840240
32.000000	-70.482796
32.125000	-74.608688
32.250000	-92.795670
32.375000	-76.964111
32.500000	-76.748474
32.625000	-75.503273
32.750000	-82.592850
32.875000	-77.570389
33.000000	-72.370522
33.125000	-72.669930
33.250000	-76.021927
33.375000	-76.569183
33.500000	-76.319946
33.625000	-79.346878
33.750000	-79.962822
33.875000	-77.525040
34.000000	-75.140770
34.125000	-75.099747
34.250000	-82.585442
34.375000	-80.090378
34.500000	-71.251160
34.625000	-66.391609
34.750000	-69.391792
34.875000	-69.366615
35.000000	-68.485352
35.125000	-72.597771
35.250000	-79.024971
35.375000	-81.576447
35.500000	-76.759926
35.625000	-69.474945
35.750000	-72.797874
35.875000	-81.643456
36.000000	-72.278854
36.125000	-66.190941
36.250000	-68.645615
36.375000	-78.472252
36.500000	-74.570183
36.625000	-78.139969
36.750000	-69.593765
36.875000	-69.183815
37.000000	-80.826149
37.125000	-72.303467
37.250000	-66.617691
37.375000	-70.470009
37.500000	-73.250359
37.625000	-73.400887
37.750000	-72.268120
37.875000	-72.526695
38.000000	-70.567680
38.125000	-78.735947
38.250000	-78.993546
38.375000	-72.911392
38.500000	-69.256187
38.625000	-70.967972
38.750000	-73.086220
38.875000	-74.616524
39.000000	-70.362885
39.125000	-73.920723
39.250000	-75.670662
39.375000	-70.516289
39.500000	-72.345284
39.625000	-84.760689
39.750000	-78.058174
39.875000	-77.450630
40.000000	-73.728897
40.125000	-75.609901
40.250000	-78.201767
40.375000	-83.788757
40.500000	-74.348442
40.625000	-87.881325
40.750000	-80.865067
40.875000	-78.202751
41.000000	-76.211639
41.125000	-76.926903
41.250000	-76.346786
41.375000	-71.442444
41.500000	-86.536560
41.625000	-70.213570
41.750000	-72.643539
41.875000	-74.861870
42.000000	-70.710350
42.125000	-71.610664
42.250000	-71.995415
42.375000	-81.972969
42.500000	-74.101822
42.625000	-82.048264
42.750000	-71.157402
42.875000	-81.309517
43.000000	-71.979591
43.125000	-72.695412
43.250000	-77.989723
43.375000	-82.988419
43.500000	-67.819984
43.625000	-65.254555
43.750000	-66.775253
43.875000	-70.787865
44.000000	-73.187057
44.125000	-74.024658
44.250000	-73.431908
44.375000	-81.782936
44.500000	-69.754570
44.625000	-73.171349
44.750000	-70.697090
44.875000	-74.877678
45.000000	-78.043411
45.125000	-72.355423
45.250000	-77.287918
45.375000	-69.677345
45.500000	-74.228554
45.625000	-80.575516
45.750000	-79.815346
45.875000	-73.203178
46.000000	-72.908531
46.125000	-72.480751
46.250000	-70.820778
46.375000	-75.808640
46.500000	-82.276711
46.625000	-72.941269
46.750000	-68.039680
46.875000	-69.955383
47.000000	-79.098282
47.125000	-74.879066
47.250000	-75.075600
47.375000	-79.364082
47.500000	-79.337425
47.625000	-73.249016
47.750000	-76.113289
47.875000	-83.107719
48.000000	-81.702698
48.125000	-82.117500
48.250000	-96.065521
48.375000	-73.862442
48.500000	-77.077896
48.625000	-71.035378
48.750000	-69.907219
48.875000	-75.525223
49.000000	-83.060654
49.125000	-78.756828
49.250000	-82.490265
49.375000	-79.619019
49.500000	-70.999771
49.625000	-68.498940
49.750000	-66.446808
49.875000	-76.804527
50.000000	-67.551285
50.125000	-69.095261
50.250000	-82.346313
50.375000	-77.927254
50.500000	-74.451660
50.625000	-77.476669
50.750000	-73.998947
50.875000	-75.633270
51.000000	-67.697884
51.125000	-65.128052
51.250000	-63.757187
51.375000	-66.833458
51.500000	-76.533157
51.625000	-72.202332
51.750000	-78.409111
51.875000	-74.512360
52.000000	-76.461197
52.125000	-80.133904
52.250000	-77.812683
52.375000	-73.338165
52.500000	-67.073723
52.625000	-68.117249
52.750000	-76.946129
52.875000	-74.704292
53.000000	-82.764351
53.125000	-68.871742
53.250000	-67.083237
53.375000	-72.899895
53.500000	-70.399567
53.625000	-64.591873
53.750000	-68.219376
53.875000	-82.431046
54.000000	-68.407074
54.125000	-66.702858
54.250000	-70.025803
54.375000	-69.412231
54.500000	-78.144302
54.625000	-74.943558
54.750000	-71.352699
54.875000	-71.175941
55.000000	-71.947212
55.125000	-78.869598
55.250000	-74.769394
55.375000	-67.191986
55.500000	-66.107979
55.625000	-70.128181
55.750000	-65.951241
55.875000	-69.406509
56.000000	-71.987297
56.125000	-68.680450
56.250000	-79.103165
56.375000	-64.788582
56.500000	-65.628532
56.625000	-66.665321
56.750000	-66.342438
56.875000	-63.045403
57.000000	-64.375381
57.125000	-69.758125
57.250000	-70.245399
57.375000	-64.057411
57.500000	-66.568222
57.625000	-74.888046
57.750000	-73.238480
57.875000	-84.012833
58.000000	-76.252174
58.125000	-70.219177
58.250000	-72.041290
58.375000	-89.399109
58.500000	-76.789444
58.625000	-78.586472
58.750000	-75.025223
58.875000	-68.274292
59.000000	-69.915596
59.125000	-72.152351
59.250000	-66.290771
59.375000	-67.908928
59.500000	-65.741554
59.625000	-60.882702
59.750000	-59.989517
59.875000	-76.633606
60.000000	-69.031860
60.125000	-71.021538
60.250000	-71.968445
60.375000	-75.457275
60.500000	-84.256409
60.625000	-73.673477
60.750000	-68.784790
60.875000	-74.449341
61.000000	-73.367249
61.125000	-76.107620
61.250000	-73.145332
61.375000	-74.562462
61.500000	-100.852760
61.625000	-95.951485
61.750000	-94.390625
61.875000	-74.974052
62.000000	-70.408241
62.125000	-77.639595
62.250000	-70.319489
62.375000	-72.350601
62.500000	-70.841576
62.625000	-73.742546
62.750000	-73.788773
62.875000	-75.735222
63.000000	-69.105820
63.125000	-71.787819
63.250000	-75.236755
63.375000	-71.652161
63.500000	-71.148659
63.625000	-72.183777
63.750000	-73.802498
63.875000	-82.084328
64.000000	-81.510887
64.125000	-74.992439
64.250000	-73.669701
64.375000	-75.758972
64.500000	-72.550873
64.625000	-67.956329
64.750000	-70.514931
64.875000	-71.045425
65.000000	-71.506706
65.125000	-72.105530
65.250000	-72.931206
65.375000	-95.786713
65.500000	-81.233887
65.625000	-74.489525
65.750000	-73.824776
65.875000	-79.584076
66.000000	-77.571777
66.125000	-87.897606
66.250000	-81.276474
66.375000	-78.246666
66.500000	-78.784599
66.625000	-73.408592
66.750000	-78.041046
66.875000	-77.577644
67.000000	-70.573746
67.125000	-66.726143
67.250000	-72.562309
67.375000	-76.228737
67.500000	-78.814682
67.625000	-71.592667
67.750000	-74.444328
67.875000	-76.533630
68.000000	-75.846268
68.125000	-78.612976
68.250000	-74.071770
68.375000	-73.803017
68.500000	-80.694000
68.625000	-72.729965
68.750000	-72.255013
68.875000	-71.986038
69.000000	-72.003304
69.125000	-92.322075
69.250000	-87.977852
69.375000	-94.941765
69.500000	-81.361107
69.625000	-85.826195
69.750000	-70.310364
69.875000	-69.538116
70.000000	-76.247162
70.125000	-74.922180
70.250000	-72.598625
70.375000	-71.581779
70.500000	-69.374985
70.625000	-68.952065
70.750000	-82.656288
70.875000	-72.847168
71.000000	-69.531639
71.125000	-72.524597
71.250000	-82.419182
71.375000	-73.146187
71.500000	-73.824539
71.625000	-88.149239
71.750000	-94.780594
71.875000	-88.633354
72.000000	-83.365959
72.125000	-76.094734
72.250000	-74.538818
72.375000	-71.564972
72.500000	-68.946930
72.625000	-99.980232
72.750000	-73.924194
72.875000	-72.691544
73.000000	-72.625977
73.125000	-82.468979
73.250000	-75.965508
73.375000	-84.065460
73.500000	-89.746948
73.625000	-76.018684
73.750000	-79.766296
73.875000	-74.680237
74.000000	-69.709076
74.125000	-68.459091
74.250000	-74.773201
74.375000	-91.932129
74.500000	-86.718636
74.625000	-78.546867
74.750000	-71.672226
74.875000	-75.115013
75.000000	-80.487679
75.125000	-92.220909
75.250000	-77.702240
75.375000	-71.824753
75.500000	-72.543121
75.625000	-70.768143
75.750000	-70.210434
75.875000	-70.958160
76.000000	-72.869644
76.125000	-75.562088
76.250000	-73.982880
76.375000	-70.564316
76.500000	-72.874489
76.625000	-80.368790
76.750000	-82.371292
76.875000	-76.878853
77.000000	-75.790543
77.125000	-74.075531
77.250000	-85.825592
77.375000	-73.686241
77.500000	-71.817108
77.625000	-86.508904
77.750000	-75.913361
77.875000	-76.998680
78.000000	-81.349632
78.125000	-74.980545
78.250000	-79.099266
78.375000	-73.550415
78.500000	-68.911789
78.625000	-69.946793
78.750000	-74.362823
78.875000	-77.361351
79.000000	-79.238266
79.125000	-79.334686
79.250000	-77.980484
79.375000	-80.635895
79.500000	-85.245956
79.625000	-79.508087
79.750000	-72.642914
79.875000	-71.584122
80.000000	-75.490433
80.125000	-86.761383
80.250000	-86.888329
80.375000	-71.713409
80.500000	-67.952187
80.625000	-70.752937
80.750000	-77.896858
80.875000	-73.353836
81.000000	-69.235588
81.125000	-72.302956
81.250000	-78.516357
81.375000	-88.158096
81.500000	-73.267654
81.625000	-72.671181
81.750000	-74.823517
81.875000	-79.111885
82.000000	-85.536942
82.125000	-74.086029
82.250000	-70.939667
82.375000	-71.153130
82.500000	-75.444252
82.625000	-85.064980
82.750000	-73.650032
82.875000	-75.632767
83.000000	-93.836891
83.125000	-81.592705
83.250000	-77.603737
83.375000	-76.979591
83.500000	-75.431702
83.625000	-74.206154
83.750000	-76.104111
83.875000	-84.930145
84.000000	-76.522629
84.125000	-80.323303
84.250000	-77.343346
84.375000	-73.291588
84.500000	-73.186508
84.625000	-73.111977
84.750000	-78.719650
84.875000	-76.474892
85.000000	-78.709976
85.125000	-78.426025
85.250000	-77.666145
85.375000	-86.099854
85.500000	-79.896317
85.625000	-78.179482
85.750000	-75.788055
85.875000	-76.082603
86.000000	-77.588074
86.125000	-95.023750
86.250000	-73.082336
86.375000	-71.749451
86.500000	-72.429489
86.625000	-76.299759
86.750000	-78.728127
86.875000	-74.800552
87.000000	-77.682724
87.125000	-80.431328
87.250000	-74.159592
87.375000	-76.628532
87.500000	-89.762520
87.625000	-77.786324
87.750000	-75.559433
87.875000	-78.463379
88.000000	-76.585320
88.125000	-81.512451
88.250000	-75.886169
88.375000	-74.067368
88.500000	-74.524643
88.625000	-76.759132
88.750000	-91.353920
88.875000	-76.792007
89.000000	-72.237968
89.125000	-74.385124
89.250000	-80.869812
89.375000	-80.327118
89.500000	-75.261406
89.625000	-75.234406
89.750000	-86.211983
89.875000	-83.780731
90.000000	-90.934807
90.125000	-81.761497
90.250000	-79.923187
90.375000	-72.385567
90.500000	-70.011513
90.625000	-72.757172
90.750000	-79.405861
90.875000	-77.518936
91.000000	-77.087814
91.125000	-79.880768
91.250000	-79.078537
91.375000	-83.627678
91.500000	-79.446762
91.625000	-84.495163
91.750000	-87.564888
91.875000	-86.051270
92.000000	-80.641098
92.125000	-77.272491
92.250000	-83.406143
92.375000	-81.661438
92.500000	-88.520081
92.625000	-74.428398
92.750000	-71.656792
92.875000	-73.614250
93.000000	-80.331047
93.125000	-79.579399
93.250000	-82.764153
93.375000	-77.724396
93.500000	-72.816650
93.625000	-76.197495
93.750000	-90.408409
93.875000	-83.269577
94.000000	-82.534462
94.125000	-84.542114
94.250000	-82.587364
94.375000	-79.146004
94.500000	-75.980095
94.625000	-79.357841
94.750000	-84.752449
94.875000	-78.747559
95.000000	-75.989861
95.125000	-77.152443
95.250000	-82.434944
95.375000	-90.258438
95.500000	-78.020386
95.625000	-74.072960
95.750000	-75.018990
95.875000	-80.516182
96.000000	-86.077545
96.125000	-80.788025
96.250000	-98.382607
96.375000	-81.717949
96.500000	-88.497971
96.625000	-77.304901
96.750000	-74.546272
96.875000	-77.104324
97.000000	-81.476219
97.125000	-77.821785
97.250000	-78.990196
97.375000	-82.657845
97.500000	-83.701485
97.625000	-78.890144
97.750000	-92.560181
97.875000	-98.398422
98.000000	-91.267982
98.125000	-85.491844
98.250000	-81.860580
98.375000	-79.276253
98.500000	-73.744225
98.625000	-73.647118
98.750000	-80.379532
98.875000	-80.804634
99.000000	-83.220673
99.125000	-76.202194
99.250000	-84.832283
99.375000	-77.445137
99.500000	-70.803696
99.625000	-74.504936
99.750000	-84.945732
99.875000	-79.725761
100.000000	-78.386719
100.125000	-73.864189
100.250000	-77.033493
100.375000	-82.381660
100.500000	-83.682549
100.625000	-83.022049
100.750000	-98.024254
100.875000	-80.370834
101.000000	-79.425156
101.125000	-84.358131
101.250000	-80.144424
101.375000	-74.226433
101.500000	-77.657478
101.625000	-83.076431
101.750000	-77.708862
101.875000	-78.845078
102.000000	-84.728813
102.125000	-81.181374
102.250000	-85.789177
102.375000	-92.598831
102.500000	-88.821503
102.625000	-83.811119
102.750000	-84.516708
102.875000	-77.892746
103.000000	-77.612885
103.125000	-74.987312
103.250000	-78.417824
103.375000	-83.768402
103.500000	-85.558533
103.625000	-83.656670
103.750000	-92.013832
103.875000	-93.150047
104.000000	-92.609001
104.125000	-92.376305
104.250000	-105.557915
104.375000	-80.553474
104.500000	-74.648575
104.625000	-74.985481
104.750000	-78.170242
104.875000	-81.649971
105.000000	-79.379601
105.125000	-80.966324
105.250000	-88.249062
105.375000	-85.866272
105.500000	-78.860847
105.625000	-79.570999
105.750000	-76.319763
105.875000	-78.321808
106.000000	-87.305260
106.125000	-89.892731
106.250000	-79.523438
106.375000	-77.647606
106.500000	-78.375793
106.625000	-81.770134
106.750000	-83.176437
106.875000	-83.477615
107.000000	-82.181267
107.125000	-77.697067
107.250000	-77.445847
107.375000	-82.621208
107.500000	-83.346748
107.625000	-81.420219
107.750000	-84.009399
107.875000	-82.434380
108.000000	-83.969742
108.125000	-92.454964
108.250000	-84.914856
108.375000	-88.067162
108.500000	-92.100960
108.625000	-80.645912
108.750000	-81.984612
108.875000	-83.374397
109.000000	-85.035873
109.125000	-82.888832
109.250000	-83.940102
109.375000	-77.759056
109.500000	-73.288956
109.625000	-81.553780
109.750000	-80.449425
109.875000	-77.453606
110.000000	-85.403030
110.125000	-86.514641
110.250000	-83.552864
110.375000	-80.074585
110.500000	-89.828873
110.625000	-80.705276
110.750000	-77.070641
110.875000	-78.573685
111.000000	-90.052132
111.125000	-77.283699
111.250000	-78.673615
111.375000	-83.096275
111.500000	-83.947075
111.625000	-87.253914
111.750000	-95.925156
111.875000	-83.595177
112.000000	-94.040039
112.125000	-87.275917
112.250000	-83.765579
112.375000	-88.945694
112.500000	-79.473091
112.625000	-77.742081
112.750000	-79.459152
112.875000	-79.993156
113.000000	-80.019310
113.125000	-90.009506
113.250000	-87.447395
113.375000	-79.510582
113.500000	-81.361618
113.625000	-78.910156
113.750000	-76.334671
113.875000	-83.714920
114.000000	-92.630501
114.125000	-81.229111
114.250000	-87.646347
114.375000	-79.809784
114.500000	-77.391800
114.625000	-80.055672
114.750000	-91.694664
114.875000	-88.625671
115.000000	-86.179749
115.125000	-85.556892
115.250000	-87.437447
115.375000	-87.175285
115.500000	-82.948624
115.625000	-82.160889
115.750000	-87.948441
115.875000	-82.666267
116.000000	-80.839600
116.125000	-83.172554
116.250000	-86.289291
116.375000	-85.375671
116.500000	-79.616753
116.625000	-91.332680
116.750000	-79.134422
116.875000	-79.500458
117.000000	-95.457573
117.125000	-81.221260
117.250000	-77.424728
117.375000	-82.360222
117.500000	-87.859192
117.625000	-83.387550
117.750000	-86.620224
117.875000	-84.600899
118.000000	-88.591095
118.125000	-89.024658
118.250000	-88.502090
118.375000	-86.641190
118.500000	-76.075134
118.625000	-77.404831
118.750000	-94.128487
118.875000	-79.205498
119.000000	-88.141693
119.125000	-68.497864
119.250000	-51.140381
119.375000	-38.667156
119.500000	-39.486191
119.625000	-54.884731
119.750000	-70.361977
119.875000	-82.663017
120.000000	-79.998314
120.125000	-87.127838
120.250000	-82.202110
120.375000	-83.455719
120.500000	-80.577759
120.625000	-84.548805
120.750000	-84.731552
120.875000	-83.728172
121.000000	-84.888527
121.125000	-91.465088
121.250000	-88.017029
121.375000	-89.322395
121.500000	-84.824715
121.625000	-83.328865
121.750000	-85.575943
121.875000	-82.923813
122.000000	-81.730301
122.125000	-87.230721
122.250000	-90.466171
122.375000	-95.336098
122.500000	-95.135551
122.625000	-84.218407
122.750000	-92.989517
122.875000	-77.728760
123.000000	-79.421951
123.125000	-93.656715
123.250000	-84.247147
123.375000	-86.484947
123.500000	-79.405365
123.625000	-79.457344
123.750000	-85.408897
123.875000	-84.722099
124.000000	-85.869736
124.125000	-80.478745
124.250000	-92.532661
124.375000	-84.042023
124.500000	-93.701065
124.625000	-84.716209
124.750000	-81.981812
124.875000	-95.165489
125.000000	-84.714615
125.125000	-82.056625
125.250000	-92.157593
125.375000	-86.941856
125.500000	-82.186348
125.625000	-81.819817
125.750000	-84.969589
125.875000	-92.381721
126.000000	-96.863068
126.125000	-95.158958
126.250000	-89.296974
126.375000	-87.219009
126.500000	-89.546692
126.625000	-88.160072
126.750000	-90.513245
126.875000	-94.903038
127.000000	-88.057533
127.125000	-84.720062
127.250000	-96.118202
127.375000	-84.334099
127.500000	-87.410835
127.625000	-93.892189
127.750000	-98.089951
127.875000	-93.248360
128.000000	-94.283142
128.125000	-84.625298
128.250000	-90.683281
128.375000	-81.384087
128.500000	-76.755898
128.625000	-78.753586
128.750000	-82.460114
128.875000	-91.404091
129.000000	-91.676170
129.125000	-88.801147
129.250000	-76.858002
129.375000	-71.617477
129.500000	-80.333260
129.625000	-84.568130
129.750000	-92.156364
129.875000	-84.882896
130.000000	-88.829475
130.125000	-90.750122
130.250000	-87.860748
130.375000	-85.682831
130.500000	-81.821182
130.625000	-80.403961
130.750000	-82.471642
130.875000	-80.533806
131.000000	-87.625809
131.125000	-97.010841
131.250000	-87.325142
131.375000	-88.164307
131.500000	-93.876831
131.625000	-98.187981
131.750000	-100.682236
131.875000	-98.300827
132.000000	-86.690811
132.125000	-83.539795
132.250000	-88.642479
132.375000	-96.121773
132.500000	-88.530594
132.625000	-100.941757
132.750000	-86.160957
132.875000	-88.295135
133.000000	-94.855675
133.125000	-84.907104
133.250000	-80.082008
133.375000	-84.423531
133.500000	-90.563217
133.625000	-86.075592
133.750000	-92.146606
133.875000	-96.696739
134.000000	-86.765327
134.125000	-87.190506
134.250000	-82.235283
134.375000	-80.206856
134.500000	-91.032471
134.625000	-89.156929
134.750000	-90.718628
134.875000	-87.819511
135.000000	-83.961266
135.125000	-81.940369
135.250000	-82.333549
135.375000	-83.591698
135.500000	-92.762932
135.625000	-91.564453
135.750000	-87.584198
135.875000	-91.412338
136.000000	-85.384590
136.125000	-87.176987
136.250000	-89.513107
136.375000	-82.328995
136.500000	-88.883163
136.625000	-81.002876
136.750000	-81.455536
136.875000	-92.986626
137.000000	-85.978882
137.125000	-90.257401
137.250000	-86.292480
137.375000	-86.620354
137.500000	-88.096176
137.625000	-82.215240
137.750000	-81.004890
137.875000	-83.526825
138.000000	-88.774925
138.125000	-115.730194
138.250000	-100.015419
138.375000	-93.194260
138.500000	-91.378853
138.625000	-85.539024
138.750000	-84.511192
138.875000	-92.084488
139.000000	-89.038551
139.125000	-84.936783
139.250000	-84.432495
139.375000	-82.816010
139.500000	-82.922714
139.625000	-81.443604
139.750000	-87.693802
139.875000	-89.918915
140.000000	-87.591347
140.125000	-85.092468
140.250000	-85.172424
140.375000	-86.821899
140.500000	-89.018791
140.625000	-86.372620
140.750000	-88.238152
140.875000	-92.981819
141.000000	-85.025635
141.125000	-84.522972
141.250000	-92.114265
141.375000	-92.225075
141.500000	-86.695808
141.625000	-92.754829
141.750000	-99.289902
141.875000	-85.744881
142.000000	-85.472397
142.125000	-95.131645
142.250000	-102.798836
142.375000	-97.642899
142.500000	-94.675072
142.625000	-93.840141
142.750000	-96.704666
142.875000	-87.471107
143.000000	-87.470573
143.125000	-87.217079
143.250000	-85.500061
143.375000	-97.673012
143.500000	-90.512817
143.625000	-82.426186
143.750000	-82.305199
143.875000	-89.182068
144.000000	-90.775162
144.125000	-99.091347
144.250000	-91.523605
144.375000	-89.731224
144.500000	-92.689507
144.625000	-94.287239
144.750000	-90.766457
144.875000	-89.536682
145.000000	-96.569679
145.125000	-92.644943
145.250000	-83.535332
145.375000	-82.395775
145.500000	-87.969276
145.625000	-87.634544
145.750000	-95.870552
145.875000	-90.497910
146.000000	-87.741692
146.125000	-93.767128
146.250000	-97.012703
146.375000	-85.345863
146.500000	-87.667992
146.625000	-88.825027
146.750000	-83.283440
146.875000	-86.808266
147.000000	-96.450508
147.125000	-90.239113
147.250000	-90.472252
147.375000	-94.582672
147.500000	-90.572563
147.625000	-93.512688
147.750000	-98.157455
147.875000	-87.814430
148.000000	-85.414917
148.125000	-88.360474
148.250000	-96.607246
148.375000	-88.843483
148.500000	-88.933777
148.625000	-96.085556
148.750000	-90.640892
148.875000	-92.018700
149.000000	-91.778778
149.125000	-89.734955
149.250000	-90.340736
149.375000	-96.157242
149.500000	-86.204788
149.625000	-83.890755
149.750000	-96.316917
149.875000	-89.593987
150.000000	-85.013710
150.125000	-84.029526
150.250000	-88.429588
150.375000	-87.568710
150.500000	-86.711586
150.625000	-85.180786
150.750000	-85.762672
150.875000	-86.996147
151.000000	-93.706383
151.125000	-92.993179
151.250000	-86.985535
151.375000	-94.415680
151.500000	-95.759155
151.625000	-86.818382
151.750000	-89.429092
151.875000	-92.192261
152.000000	-103.534355
152.125000	-104.056587
152.250000	-94.406677
152.375000	-92.309662
152.500000	-95.875977
152.625000	-91.618515
152.750000	-85.696564
152.875000	-84.193253
153.000000	-87.199738
153.125000	-89.862289
153.250000	-92.103195
153.375000	-90.085106
153.500000	-89.848473
153.625000	-93.689072
153.750000	-88.381981
153.875000	-102.099304
154.000000	-90.207230
154.125000	-96.615013
154.250000	-91.074425
154.375000	-88.743500
154.500000	-90.571205
154.625000	-106.347046
154.750000	-91.326080
154.875000	-86.647232
155.000000	-100.609276
155.125000	-89.206017
155.250000	-92.971733
155.375000	-89.485054
155.500000	-94.003670
155.625000	-96.565804
155.750000	-89.420021
155.875000	-90.527588
156.000000	-90.269989
156.125000	-84.784004
156.250000	-86.712288
156.375000	-87.575554
156.500000	-87.122467
156.625000	-88.925758
156.750000	-95.350815
156.875000	-91.688072
157.000000	-91.115959
157.125000	-92.584641
157.250000	-90.465103
157.375000	-86.856178
157.500000	-91.029396
157.625000	-92.813362
157.750000	-89.324387
157.875000	-88.767578
158.000000	-90.909111
158.125000	-88.414238
158.250000	-83.193825
158.375000	-86.433914
158.500000	-87.235130
158.625000	-89.299644
158.750000	-96.253319
158.875000	-87.525154
159.000000	-100.940758
159.125000	-99.315346
159.250000	-93.640961
159.375000	-105.830521
159.500000	-89.359383
159.625000	-85.942932
159.750000	-85.254982
159.875000	-90.011200
160.000000	-91.943756
160.125000	-103.894325
160.250000	-99.635490
160.375000	-100.819565
160.500000	-94.346046
160.625000	-96.378052
160.750000	-100.587646
160.875000	-96.625320
161.000000	-96.509430
161.125000	-104.892082
161.250000	-90.178757
161.375000	-87.618126
161.500000	-108.649643
161.625000	-91.091141
161.750000	-100.205185
161.875000	-86.675812
162.000000	-84.062088
162.125000	-93.231293
162.250000	-97.634232
162.375000	-94.219429
162.500000	-93.409920
162.625000	-93.986725
162.750000	-94.598106
162.875000	-93.755959
163.000000	-95.200798
163.125000	-91.426704
163.250000	-93.682343
163.375000	-88.335442
163.500000	-89.010521
163.625000	-106.650314
163.750000	-98.637733
163.875000	-94.618629
164.000000	-94.846062
164.125000	-97.677879
164.250000	-85.125351
164.375000	-87.051338
164.500000	-92.648903
164.625000	-90.582359
164.750000	-87.548073
164.875000	-96.485260
165.000000	-86.799240
165.125000	-84.414345
165.250000	-87.777115
165.375000	-91.360100
165.500000	-90.208427
165.625000	-87.528534
165.750000	-88.377113
165.875000	-92.116432
166.000000	-90.862083
166.125000	-112.789146
166.250000	-102.937973
166.375000	-101.039742
166.500000	-90.355186
166.625000	-87.521530
166.750000	-94.080956
166.875000	-99.326302
167.000000	-93.541328
167.125000	-96.942795
167.250000	-92.815559
167.375000	-111.801605
167.500000	-88.771378
167.625000	-97.525024
167.750000	-92.754318
167.875000	-93.259247
168.000000	-96.937256
168.125000	-104.724274
168.250000	-92.259972
168.375000	-87.029289
168.500000	-88.378632
168.625000	-92.799278
168.750000	-95.309097
168.875000	-97.960159
169.000000	-93.580887
169.125000	-89.685745
169.250000	-87.247482
169.375000	-85.786530
169.500000	-86.102921
169.625000	-90.277687
169.750000	-95.301247
169.875000	-93.220161
170.000000	-88.259941
170.125000	-90.026054
170.250000	-101.572678
170.375000	-89.016090
170.500000	-91.616875
170.625000	-96.580215
170.750000	-101.427673
170.875000	-97.719566
171.000000	-95.009178
171.125000	-95.999184
171.250000	-94.786308
171.375000	-90.132675
171.500000	-96.261803
171.625000	-106.904808
171.750000	-99.307373
171.875000	-91.176865
172.000000	-91.485481
172.125000	-101.896729
172.250000	-93.949135
172.375000	-103.482597
172.500000	-88.966240
172.625000	-91.788612
172.750000	-96.749603
172.875000	-93.228012
173.000000	-89.753242
173.125000	-91.621513
173.250000	-91.828209
173.375000	-86.139336
173.500000	-85.959717
173.625000	-91.859642
173.750000	-94.014954
173.875000	-95.875801
174.000000	-93.110291
174.125000	-96.577690
174.250000	-96.268761
174.375000	-95.598320
174.500000	-103.765717
174.625000	-93.595650
174.750000	-91.556358
174.875000	-93.230896
175.000000	-92.950058
175.125000	-105.670525
175.250000	-101.902046
175.375000	-93.625992
175.500000	-92.772110
175.625000	-90.656013
175.750000	-92.860001
175.875000	-92.700996
176.000000	-90.863075
176.125000	-92.509720
176.250000	-94.514038
176.375000	-92.347244
176.500000	-97.190277
176.625000	-100.440727
176.750000	-98.150345
176.875000	-97.006073
177.000000	-99.210983
177.125000	-91.804276
177.250000	-94.031616
177.375000	-90.477791
177.500000	-87.727058
177.625000	-99.229851
177.750000	-91.763535
177.875000	-96.234772
178.000000	-90.573906
178.125000	-89.531776
178.250000	-101.528656
178.375000	-89.327110
178.500000	-89.628021
178.625000	-87.957581
178.750000	-88.352211
178.875000	-107.083664
179.000000	-74.589676
179.125000	-66.964615
179.250000	-71.811234
179.375000	-91.445839
179.500000	-91.576714
179.625000	-92.837257
179.750000	-94.283875
179.875000	-91.916656
180.000000	-90.645691
180.125000	-88.933746
180.250000	-88.649033
180.375000	-108.662834
180.500000	-90.017189
180.625000	-91.756371
180.750000	-98.108406
180.875000	-88.672646
181.000000	-87.983604
181.125000	-90.576302
181.250000	-92.588478
181.375000	-88.056839
181.500000	-86.441719
181.625000	-86.277992
181.750000	-87.647896
181.875000	-91.240471
182.000000	-95.830444
182.125000	-103.876442
182.250000	-90.501183
182.375000	-88.694328
182.500000	-94.573250
182.625000	-103.676819
182.750000	-92.040451
182.875000	-99.727486
183.000000	-87.590538
183.125000	-88.067238
183.250000	-108.638710
183.375000	-113.287010
183.500000	-98.812218
183.625000	-91.157104
183.750000	-89.562141
183.875000	-91.087662
184.000000	-99.468704
184.125000	-105.221230
184.250000	-89.307869
184.375000	-88.964294
184.500000	-89.916649
184.625000	-94.599007
184.750000	-92.686234
184.875000	-90.871361
185.000000	-91.949463
185.125000	-87.528290
185.250000	-91.061905
185.375000	-95.071739
185.500000	-102.681755
185.625000	-100.531837
185.750000	-89.412354
185.875000	-92.364601
186.000000	-107.343628
186.125000	-113.319633
186.250000	-101.561241
186.375000	-95.701447
186.500000	-99.234100
186.625000	-96.193954
186.750000	-97.452972
186.875000	-99.729187
187.000000	-95.347862
187.125000	-107.292053
187.250000	-94.983894
187.375000	-95.518822
187.500000	-92.859200
187.625000	-89.711044
187.750000	-96.183762
187.875000	-100.458817
188.000000	-94.998650
188.125000	-102.089470
188.250000	-106.321564
188.375000	-98.555939
188.500000	-99.656754
188.625000	-96.069542
188.750000	-97.021866
188.875000	-90.536156
189.000000	-86.493958
189.125000	-91.595047
189.250000	-91.798340
189.375000	-97.713837
189.500000	-98.208694
189.625000	-93.773415
189.750000	-96.172554
189.875000	-93.325058
190.000000	-92.841057
190.125000	-97.999893
190.250000	-91.585526
190.375000	-87.034813
190.500000	-87.112053
190.625000	-92.340744
190.750000	-99.687263
190.875000	-94.714439
191.000000	-99.791382
191.125000	-100.343788
191.250000	-95.986504
191.375000	-95.923264
191.500000	-96.843544
191.625000	-94.272636
191.750000	-91.168640
191.875000	-91.866150
192.000000	-103.298012
192.125000	-96.350868
192.250000	-106.232071
192.375000	-108.368904
192.500000	-93.379272
192.625000	-96.494980
192.750000	-95.914757
192.875000	-96.212883
193.000000	-92.381340
193.125000	-90.827042
193.250000	-89.731010
193.375000	-89.849083
193.500000	-92.047264
193.625000	-93.353256
193.750000	-96.939575
193.875000	-92.057907
194.000000	-103.104614
194.125000	-101.266113
194.250000	-98.001663
194.375000	-96.419212
194.500000	-104.557884
194.625000	-99.980125
194.750000	-93.299614
194.875000	-89.620308
195.000000	-92.471352
195.125000	-90.895889
195.250000	-90.265381
195.375000	-95.134499
195.500000	-89.279350
195.625000	-91.537453
195.750000	-96.298729
195.875000	-99.117317
196.000000	-94.868256
196.125000	-91.824242
196.250000	-91.485863
196.375000	-93.750854
196.500000	-97.833794
196.625000	-94.052048
196.750000	-90.292389
196.875000	-94.936409
197.000000	-99.237129
197.125000	-96.830902
197.250000	-96.525810
197.375000	-102.642014
197.500000	-97.172974
197.625000	-105.172417
197.750000	-91.704414
197.875000	-92.443405
198.000000	-105.474480
198.125000	-96.942253
198.250000	-89.656113
198.375000	-92.880188
198.500000	-100.650589
198.625000	-103.111320
198.750000	-99.193016
198.875000	-94.296753
199.000000	-92.880539
199.125000	-89.307243
199.250000	-92.562477
199.375000	-91.332588
199.500000	-90.801773
199.625000	-94.274406
199.750000	-104.503746
199.875000	-91.923645
200.000000	-89.217491
200.125000	-96.249855
200.250000	-102.627090
200.375000	-98.253670
200.500000	-100.673157
200.625000	-101.817375
200.750000	-99.201759
200.875000	-110.769608
201.000000	-101.343109
201.125000	-93.096710
201.250000	-95.145813
201.375000	-109.484741
201.500000	-99.048851
201.625000	-91.123077
201.750000	-93.835587
201.875000	-97.025612
202.000000	-106.455109
202.125000	-97.655693
202.250000	-93.621582
202.375000	-95.822113
202.500000	-100.321426
202.625000	-102.730606
202.750000	-103.145401
202.875000	-102.438950
203.000000	-105.485680
203.125000	-103.501205
203.250000	-99.533974
203.375000	-101.442406
203.500000	-95.555298
203.625000	-99.055374
203.750000	-94.807121
203.875000	-92.041145
204.000000	-94.257019
204.125000	-96.699364
204.250000	-91.398071
204.375000	-92.038872
204.500000	-94.213074
204.625000	-92.267784
204.750000	-93.031013
204.875000	-101.173080
205.000000	-97.508499
205.125000	-111.170410
205.250000	-96.995125
205.375000	-103.332680
205.500000	-100.226807
205.625000	-119.816833
205.750000	-95.692581
205.875000	-91.919731
206.000000	-92.425934
206.125000	-93.464706
206.250000	-92.111031
206.375000	-91.695877
206.500000	-90.826866
206.625000	-90.377090
206.750000	-92.420288
206.875000	-92.767876
207.000000	-97.732780
207.125000	-98.511192
207.250000	-92.208336
207.375000	-92.887459
207.500000	-104.386772
207.625000	-99.714005
207.750000	-97.402061
207.875000	-93.710052
208.000000	-93.757751
208.125000	-101.976540
208.250000	-102.069839
208.375000	-92.959641
208.500000	-92.198441
208.625000	-101.080765
208.750000	-94.050064
208.875000	-94.898705
209.000000	-93.271416
209.125000	-92.672928
209.250000	-96.126190
209.375000	-108.449669
209.500000	-93.106392
209.625000	-90.879936
209.750000	-93.888565
209.875000	-95.022491
210.000000	-96.299088
210.125000	-101.292130
210.250000	-94.374641
210.375000	-88.795395
210.500000	-87.952995
210.625000	-92.217354
210.750000	-92.963364
210.875000	-93.202408
211.000000	-94.011703
211.125000	-94.572746
211.250000	-94.638191
211.375000	-93.854630
211.500000	-102.114197
211.625000	-100.597801
211.750000	-102.239784
211.875000	-102.183548
212.000000	-107.780281
212.125000	-95.495255
212.250000	-90.185013
212.375000	-94.315956
212.500000	-111.101082
212.625000	-99.442596
212.750000	-97.927162
212.875000	-97.004082
213.000000	-96.830772
213.125000	-102.296440
213.250000	-93.104095
213.375000	-83.933022
213.500000	-84.522415
213.625000	-96.483826
213.750000	-89.052704
213.875000	-90.948845
214.000000	-105.686699
214.125000	-96.204895
214.250000	-90.143936
214.375000	-98.780396
214.500000	-98.048103
214.625000	-97.033508
214.750000	-96.959259
214.875000	-92.602417
215.000000	-92.531769
215.125000	-91.124023
215.250000	-92.773285
215.375000	-94.484543
215.500000	-92.619171
215.625000	-94.989487
215.750000	-93.884544
215.875000	-89.338310
216.000000	-89.211212
216.125000	-102.160622
216.250000	-95.309746
216.375000	-98.098564
216.500000	-95.559502
216.625000	-91.967537
216.750000	-96.449951
216.875000	-103.369255
217.000000	-94.175423
217.125000	-91.634789
217.250000	-94.053032
217.375000	-96.675529
217.500000	-97.223763
217.625000	-99.089905
217.750000	-97.765114
217.875000	-92.985397
218.000000	-103.619278
218.125000	-95.618660
218.250000	-99.254936
218.375000	-103.938606
218.500000	-95.166183
218.625000	-99.460388
218.750000	-102.973442
218.875000	-98.726448
219.000000	-96.476715
219.125000	-96.323883
219.250000	-99.789795
219.375000	-97.526772
219.500000	-92.705383
219.625000	-95.073280
219.750000	-94.158127
219.875000	-112.838760
220.000000	-103.922081
220.125000	-99.196449
220.250000	-96.616096
220.375000	-94.826363
220.500000	-99.792366
220.625000	-104.067833
220.750000	-93.595848
220.875000	-98.509743
221.000000	-108.665291
221.125000	-103.128487
221.250000	-91.083885
221.375000	-89.013168
221.500000	-94.325294
221.625000	-100.878815
221.750000	-116.691620
221.875000	-91.441986
222.000000	-92.539940
222.125000	-113.729294
222.250000	-97.130959
222.375000	-104.052826
222.500000	-94.528061
222.625000	-105.664940
222.750000	-95.321945
222.875000	-94.866386
223.000000	-90.359093
223.125000	-98.672913
223.250000	-96.567413
223.375000	-97.697853
223.500000	-100.651703
223.625000	-95.720123
223.750000	-96.577583
223.875000	-93.693619
224.000000	-95.754585
224.125000	-95.160896
224.250000	-91.009178
224.375000	-97.088013
224.500000	-102.227043
224.625000	-104.798584
224.750000	-98.424225
224.875000	-100.723396
225.000000	-106.026009
225.125000	-108.760429
225.250000	-99.581879
225.375000	-96.736931
225.500000	-86.942871
225.625000	-90.718620
225.750000	-96.095329
225.875000	-90.207024
226.000000	-93.393082
226.125000	-118.545029
226.250000	-96.368568
226.375000	-103.271790
226.500000	-95.999054
226.625000	-94.554352
226.750000	-96.287300
226.875000	-98.340828
227.000000	-97.615051
227.125000	-95.128983
227.250000	-92.655853
227.375000	-101.153267
227.500000	-92.568413
227.625000	-93.755074
227.750000	-101.990364
227.875000	-89.969032
228.000000	-94.932068
228.125000	-100.073494
228.250000	-99.036583
228.375000	-94.436661
228.500000	-98.236984
228.625000	-94.948570
228.750000	-115.477165
228.875000	-96.050568
229.000000	-94.173569
229.125000	-98.353477
229.250000	-94.144180
229.375000	-88.043785
229.500000	-89.902092
229.625000	-97.708611
229.750000	-101.698425
229.875000	-98.588745
230.000000	-100.875496
230.125000	-96.991409
230.250000	-95.990021
230.375000	-114.023071
230.500000	-97.751968
230.625000	-95.530006
230.750000	-96.341072
230.875000	-99.361969
231.000000	-92.514023
231.125000	-93.533791
231.250000	-94.872559
231.375000	-106.358582
231.500000	-98.472893
231.625000	-99.167931
231.750000	-97.042686
231.875000	-90.621445
232.000000	-91.712364
232.125000	-92.865570
232.250000	-92.396347
232.375000	-99.243225
232.500000	-105.624634
232.625000	-105.962883
232.750000	-94.517136
232.875000	-92.526817
233.000000	-98.421768
233.125000	-92.509552
233.250000	-94.150444
233.375000	-100.299522
233.500000	-102.203606
233.625000	-95.259781
233.750000	-96.515633
233.875000	-96.907471
234.000000	-92.053902
234.125000	-88.996368
234.250000	-91.682037
234.375000	-108.130409
234.500000	-99.412506
234.625000	-105.581161
234.750000	-104.486458
234.875000	-100.730736
235.000000	-102.765671
235.125000	-102.689178
235.250000	-94.378151
235.375000	-94.841652
235.500000	-98.824921
235.625000	-96.345711
235.750000	-94.821510
235.875000	-98.800438
236.000000	-98.431656
236.125000	-98.527267
236.250000	-103.707710
236.375000	-99.058769
236.500000	-94.132889
236.625000	-93.120514
236.750000	-96.436432
236.875000	-98.849785
237.000000	-92.661339
237.125000	-98.976234
237.250000	-95.365067
237.375000	-98.516815
237.500000	-99.662430
237.625000	-101.752625
237.750000	-95.914894
237.875000	-96.510727
238.000000	-106.767334
238.125000	-100.428925
238.250000	-95.283813
238.375000	-97.749298
238.500000	-101.503922
238.625000	-95.108414
238.750000	-68.886574
238.875000	-64.566971
239.000000	-72.388840
239.125000	-89.908195
239.250000	-105.447388
239.375000	-93.921165
239.500000	-95.721207
239.625000	-95.990540
239.750000	-101.587166
239.875000	-98.183495
240.000000	-94.940941
240.125000	-99.136063
240.250000	-101.037155
240.375000	-94.502434
240.500000	-91.642296
240.625000	-94.736633
240.750000	-105.898918
240.875000	-134.042648
241.000000	-100.042648
241.125000	-92.445511
241.250000	-91.415756
241.375000	-97.546997
241.500000	-99.176804
241.625000	-100.484215
241.750000	-91.729309
241.875000	-97.312454
242.000000	-96.809540
242.125000	-94.795212
242.250000	-101.909027
242.375000	-93.175308
242.500000	-90.958427
242.625000	-91.391075
242.750000	-97.866043
242.875000	-99.617592
243.000000	-92.532074
243.125000	-94.853142
243.250000	-100.708389
243.375000	-92.303436
243.500000	-95.106812
243.625000	-98.137466
243.750000	-98.615608
243.875000	-100.398819
244.000000	-90.743240
244.125000	-96.188843
244.250000	-94.455048
244.375000	-91.735123
244.500000	-99.764626
244.625000	-100.017303
244.750000	-103.872490
244.875000	-97.890358
245.000000	-93.418732
245.125000	-92.900055
245.250000	-96.592476
245.375000	-97.970612
245.500000	-95.135941
245.625000	-92.546867
245.750000	-92.811073
245.875000	-97.777245
246.000000	-98.925789
246.125000	-105.247841
246.250000	-108.186455
246.375000	-105.183517
246.500000	-99.396889
246.625000	-101.775452
246.750000	-106.094055
246.875000	-107.735710
247.000000	-96.882820
247.125000	-101.985451
247.250000	-92.773308
247.375000	-91.618896
247.500000	-98.138657
247.625000	-92.734276
247.750000	-91.231041
247.875000	-93.986313
248.000000	-98.386894
248.125000	-98.589310
248.250000	-92.846504
248.375000	-91.921638
248.500000	-96.761742
248.625000	-97.154358
248.750000	-98.786728
248.875000	-100.720680
249.000000	-107.110115
249.125000	-98.726341
249.250000	-103.315262
249.375000	-95.670792
249.500000	-90.891525
249.625000	-97.793083
249.750000	-97.353516
249.875000	-97.791504
250.000000	-94.959435
250.125000	-93.039406
250.250000	-98.015648
250.375000	-93.301735
250.500000	-97.540520
250.625000	-99.292168
250.750000	-95.770416
250.875000	-104.134781
251.000000	-91.887550
251.125000	-91.023560
251.250000	-99.937431
251.375000	-93.506447
251.500000	-94.654243
251.625000	-97.381653
251.750000	-97.638130
251.875000	-98.842766
252.000000	-95.534019
252.125000	-93.969292
252.250000	-96.023438
252.375000	-104.416321
252.500000	-101.795982
252.625000	-100.301628
252.750000	-102.060837
252.875000	-104.571663
253.000000	-98.527245
253.125000	-93.504433
253.250000	-92.235809
253.375000	-96.469055
253.500000	-96.473778
253.625000	-94.079163
253.750000	-95.100555
253.875000	-99.679771
254.000000	-103.293442
254.125000	-98.287560
254.250000	-93.962585
254.375000	-92.845871
254.500000	-95.009590
254.625000	-94.858887
254.750000	-95.608299
254.875000	-94.030487
255.000000	-102.429581
255.125000	-93.885712
255.250000	-91.516014
255.375000	-95.911911
255.500000	-113.563507
255.625000	-101.868172
255.750000	-96.098938
255.875000	-92.408409
