Frequency (Hz)	Level (dB)
0.125000	-31.831146
0.250000	-75.627403
0.375000	-70.141083
0.500000	-70.342117
0.625000	-64.470871
0.750000	-65.619278
0.875000	-65.047157
1.000000	-69.365379
1.125000	-82.192307
1.250000	-84.955177
1.375000	-72.657463
1.500000	-64.121574
1.625000	-73.646805
1.750000	-61.907345
1.875000	-63.982082
2.000000	-64.842224
2.125000	-65.615730
2.250000	-65.483932
2.375000	-75.859589
2.500000	-65.189720
2.625000	-64.590416
2.750000	-64.340660
2.875000	-61.095383
3.000000	-62.264729
3.125000	-76.416542
3.250000	-72.005371
3.375000	-81.802025
3.500000	-71.711296
3.625000	-62.054657
3.750000	-62.508831
3.875000	-62.940353
4.000000	-61.494057
4.125000	-64.950188
4.250000	-69.142807
4.375000	-66.934479
4.500000	-67.126793
4.625000	-75.649521
4.750000	-68.284187
4.875000	-66.663391
5.000000	-69.602440
5.125000	-79.295662
5.250000	-71.215797
5.375000	-71.510063
5.500000	-70.508896
5.625000	-73.344292
5.750000	-66.993225
5.875000	-76.729767
6.000000	-65.425194
6.125000	-78.300316
6.250000	-76.386299
6.375000	-78.026604
6.500000	-67.500351
6.625000	-68.468491
6.750000	-72.049042
6.875000	-66.351044
7.000000	-67.012985
7.125000	-70.090919
7.250000	-67.615097
7.375000	-75.793678
7.500000	-79.607224
7.625000	-67.254021
7.750000	-62.486336
7.875000	-64.855835
8.000000	-71.684425
8.125000	-78.316658
8.250000	-76.077148
8.375000	-68.843445
8.500000	-72.439690
8.625000	-77.828064
8.750000	-70.937492
8.875000	-70.126282
9.000000	-86.906258
9.125000	-82.133865
9.250000	-76.258110
9.375000	-74.389618
9.500000	-76.022942
9.625000	-71.192940
9.750000	-75.133621
9.875000	-67.486130
10.000000	-68.528748
10.125000	-77.355087
10.250000	-75.259789
10.375000	-70.482719
10.500000	-71.254044
10.625000	-73.768776
10.750000	-72.845238
10.875000	-79.230339
11.000000	-72.408386
11.125000	-73.088112
11.250000	-67.887657
11.375000	-66.929939
11.500000	-83.810440
11.625000	-67.611603
11.750000	-72.078583
11.875000	-76.295120
12.000000	-76.517715
12.125000	-72.600739
12.250000	-70.366486
12.375000	-67.185349
12.500000	-65.981743
12.625000	-64.597404
12.750000	-69.678299
12.875000	-70.264580
13.000000	-73.588951
13.125000	-71.700996
13.250000	-69.822678
13.375000	-69.668694
13.500000	-75.616631
13.625000	-69.782135
13.750000	-68.278831
13.875000	-66.940788
14.000000	-59.373505
14.125000	-61.839233
14.250000	-54.928219
14.375000	-48.604549
14.500000	-42.522636
14.625000	-32.788956
14.750000	-15.645577
14.875000	-2.030557
15.000000	-2.233944
15.125000	-16.587811
15.250000	-33.225487
15.375000	-42.346504
15.500000	-49.449688
15.625000	-56.225250
15.750000	-57.584587
15.875000	-66.213173
16.000000	-61.304020
16.125000	-71.896896
16.250000	-61.034325
16.375000	-67.076118
16.500000	-65.168335
16.625000	-70.274246
16.750000	-69.323799
16.875000	-63.509212
17.000000	-65.909500
17.125000	-76.038651
17.250000	-81.684814
17.375000	-83.144180
17.500000	-81.374008
17.625000	-83.923439
17.750000	-75.454247
17.875000	-67.490204
18.000000	-69.269958
18.125000	-82.800041
18.250000	-72.026291
18.375000	-71.389084
18.500000	-68.704529
18.625000	-69.694305
18.750000	-71.926971
18.875000	-68.287842
19.000000	-72.786835
19.125000	-78.679222
19.250000	-79.534920
19.375000	-71.088104
19.500000	-75.197319
19.625000	-67.061554
19.750000	-65.873146
19.875000	-74.119682
20.000000	-71.557205
20.125000	-66.325943
20.250000	-65.494858
20.375000	-69.284859
20.500000	-78.398628
20.625000	-78.571495
20.750000	-79.451065
20.875000	-74.515747
21.000000	-75.735344
21.125000	-82.934578
21.250000	-79.069229
21.375000	-74.368729
21.500000	-68.995705
21.625000	-73.837242
21.750000	-68.898560
21.875000	-73.251854
22.000000	-81.604141
22.125000	-87.231171
22.250000	-73.177452
22.375000	-70.817139
22.500000	-74.777496
22.625000	-71.465080
22.750000	-68.686119
22.875000	-67.778252
23.000000	-74.327515
23.125000	-90.177422
23.250000	-80.719131
23.375000	-75.492203
23.500000	-69.226669
23.625000	-73.123039
23.750000	-76.868607
23.875000	-67.502495
24.000000	-69.573631
24.125000	-73.767326
24.250000	-69.899689
24.375000	-68.330490
24.500000	-69.347160
24.625000	-75.443787
24.750000	-76.039742
24.875000	-75.395561
25.000000	-74.648315
25.125000	-84.569321
25.250000	-75.216072
25.375000	-73.110741
25.500000	-72.590431
25.625000	-73.126610
25.750000	-71.385719
25.875000	-73.499710
26.000000	-76.808746
26.125000	-75.193504
26.250000	-78.393105
26.375000	-80.466576
26.500000	-81.395424
26.625000	-75.155632
26.750000	-71.024605
26.875000	-68.857445
27.000000	-71.484268
27.125000	-67.307320
27.250000	-69.155281
27.375000	-80.993042
27.500000	-71.005974
27.625000	-73.094368
27.750000	-77.512848
27.875000	-70.901970
28.000000	-66.153450
28.125000	-69.798065
28.250000	-74.699585
28.375000	-67.993820
28.500000	-70.234154
28.625000	-73.424347
28.750000	-65.875450
28.875000	-70.344360
29.000000	-79.741562
29.125000	-72.138000
29.250000	-70.848824
29.375000	-67.005775
29.500000	-64.306190
29.625000	-72.930305
29.750000	-39.249012
29.875000	-33.585678
30.000000	-40.103504
30.125000	-73.408279
30.250000	-72.526527
30.375000	-69.130997
30.500000	-68.859375
30.625000	-78.558334
30.750000	-74.513084
30.875000	-76.074097
31.000000	-70.045921
31.125000	-76.969696
31.250000	-75.006462
31.375000	-79.011978
31.500000	-72.522652
31.625000	-76.902840
31.750000	-72.165123
31.875000	-80.812401
32.000000	-78.803505
32.125000	-69.912827
32.250000	-71.839417
32.375000	-76.132164
32.500000	-71.824646
32.625000	-71.926666
32.750000	-73.122581
32.875000	-68.774384
33.000000	-69.584373
33.125000	-74.579185
33.250000	-98.590309
33.375000	-83.577515
33.500000	-86.324677
33.625000	-74.490540
33.750000	-74.540176
33.875000	-84.357826
34.000000	-83.885925
34.125000	-77.184113
34.250000	-72.813683
34.375000	-75.277061
34.500000	-74.264351
34.625000	-75.112114
34.750000	-72.667213
34.875000	-69.203712
35.000000	-81.061768
35.125000	-70.607445
35.250000	-68.489952
35.375000	-77.522354
35.500000	-74.470581
35.625000	-75.933647
35.750000	-77.887138
35.875000	-72.372780
36.000000	-73.473717
36.125000	-75.506714
36.250000	-72.067520
36.375000	-71.052330
36.500000	-77.525368
36.625000	-72.108391
36.750000	-69.429871
36.875000	-81.226021
37.000000	-80.909111
37.125000	-87.114090
37.250000	-76.513100
37.375000	-68.665237
37.500000	-71.546051
37.625000	-86.219482
37.750000	-73.157310
37.875000	-68.759018
38.000000	-72.470879
38.125000	-73.999420
38.250000	-75.310516
38.375000	-74.611107
38.500000	-69.482216
38.625000	-69.460197
38.750000	-79.197525
38.875000	-74.789078
39.000000	-75.600975
39.125000	-88.952362
39.250000	-80.439133
39.375000	-67.951111
39.500000	-66.873665
39.625000	-81.978706
39.750000	-77.381836
39.875000	-76.264458
40.000000	-75.133331
40.125000	-83.042023
40.250000	-77.744408
40.375000	-73.138535
40.500000	-72.354691
40.625000	-73.560722
40.750000	-71.925484
40.875000	-70.710289
41.000000	-75.970627
41.125000	-73.691010
41.250000	-79.007446
41.375000	-90.800163
41.500000	-76.293503
41.625000	-77.614464
41.750000	-75.735741
41.875000	-72.152519
42.000000	-78.580330
42.125000	-76.927376
42.250000	-69.873718
42.375000	-70.230568
42.500000	-73.694725
42.625000	-72.587540
42.750000	-71.217972
42.875000	-81.820381
43.000000	-80.023262
43.125000	-84.120934
43.250000	-80.075180
43.375000	-80.258385
43.500000	-71.255646
43.625000	-79.099075
43.750000	-76.346710
43.875000	-81.896584
44.000000	-81.165260
44.125000	-78.569099
44.250000	-78.977203
44.375000	-82.210983
44.500000	-64.374519
44.625000	-50.409241
44.750000	-37.339325
44.875000	-38.095062
45.000000	-54.429180
45.125000	-63.252617
45.250000	-73.925201
45.375000	-69.792175
45.500000	-82.033943
45.625000	-85.336655
45.750000	-76.122246
45.875000	-75.209694
46.000000	-76.002052
46.125000	-75.076736
46.250000	-78.481003
46.375000	-75.625488
46.500000	-71.319954
46.625000	-68.460274
46.750000	-68.589348
46.875000	-74.245735
47.000000	-72.091423
47.125000	-70.663620
47.250000	-72.008888
47.375000	-69.109619
47.500000	-72.603935
47.625000	-72.543106
47.750000	-67.342232
47.875000	-73.189034
48.000000	-74.437637
48.125000	-68.696533
48.250000	-72.365913
48.375000	-70.275604
48.500000	-70.689072
48.625000	-72.608406
48.750000	-78.644585
48.875000	-72.733101
49.000000	-72.946877
49.125000	-75.033173
49.250000	-72.479797
49.375000	-73.594940
49.500000	-70.595329
49.625000	-70.169144
49.750000	-73.032280
49.875000	-73.654129
50.000000	-65.862289
50.125000	-65.036362
50.250000	-70.495041
50.375000	-67.931259
50.500000	-76.004898
50.625000	-67.198807
50.750000	-70.886131
50.875000	-87.444107
51.000000	-78.938370
51.125000	-74.463913
51.250000	-72.137474
51.375000	-71.013611
51.500000	-68.050095
51.625000	-72.173309
51.750000	-72.186386
51.875000	-73.394341
52.000000	-78.295952
52.125000	-79.594360
52.250000	-79.048294
52.375000	-71.204193
52.500000	-74.463318
52.625000	-76.171913
52.750000	-67.092201
52.875000	-70.163788
53.000000	-87.882805
53.125000	-81.996674
53.250000	-74.865669
53.375000	-71.957458
53.500000	-70.182762
53.625000	-77.771637
53.750000	-76.063744
53.875000	-69.747955
54.000000	-68.014305
54.125000	-66.733536
54.250000	-65.776665
54.375000	-65.614754
54.500000	-66.169579
54.625000	-69.826515
54.750000	-75.458839
54.875000	-67.105553
55.000000	-66.024902
55.125000	-70.306999
55.250000	-71.729431
55.375000	-73.529251
55.500000	-75.851669
55.625000	-73.605812
55.750000	-71.067688
55.875000	-71.296822
56.000000	-74.368309
56.125000	-72.522125
56.250000	-70.079529
56.375000	-68.370216
56.500000	-75.172318
56.625000	-84.006836
56.750000	-69.667488
56.875000	-67.065788
57.000000	-77.215172
57.125000	-70.990875
57.250000	-72.013672
57.375000	-72.230576
57.500000	-70.534439
57.625000	-72.266808
57.750000	-64.930817
57.875000	-68.073608
58.000000	-70.098717
58.125000	-72.592384
58.250000	-65.101295
58.375000	-63.878643
58.500000	-67.198730
58.625000	-69.185333
58.750000	-65.395897
58.875000	-67.597412
59.000000	-73.724747
59.125000	-71.700279
59.250000	-68.571304
59.375000	-67.274590
59.500000	-77.450340
59.625000	-48.708958
59.750000	-43.600899
59.875000	-50.109928
60.000000	-74.492805
60.125000	-69.998222
60.250000	-68.249062
60.375000	-70.417709
60.500000	-83.784660
60.625000	-73.661301
60.750000	-70.177017
60.875000	-68.354675
61.000000	-69.169708
61.125000	-73.641548
61.250000	-84.831551
61.375000	-71.369881
61.500000	-67.020805
61.625000	-72.237961
61.750000	-81.362808
61.875000	-73.981567
62.000000	-68.900574
62.125000	-67.516792
62.250000	-81.311325
62.375000	-78.256065
62.500000	-80.509399
62.625000	-69.516037
62.750000	-77.512802
62.875000	-70.639442
63.000000	-69.300102
63.125000	-75.781914
63.250000	-75.449669
63.375000	-69.940926
63.500000	-70.163986
63.625000	-78.036377
63.750000	-84.339371
63.875000	-68.739578
64.000000	-66.538727
64.125000	-71.849800
64.250000	-70.739410
64.375000	-67.655045
64.500000	-73.164711
64.625000	-78.106133
64.750000	-72.651085
64.875000	-76.717392
65.000000	-70.059280
65.125000	-65.847656
65.250000	-70.694412
65.375000	-72.904907
65.500000	-69.487717
65.625000	-66.323944
65.750000	-66.886963
65.875000	-73.844513
66.000000	-76.961273
66.125000	-71.510933
66.250000	-75.091187
66.375000	-86.503922
66.500000	-76.583687
66.625000	-73.752319
66.750000	-79.092697
66.875000	-77.128052
67.000000	-79.738815
67.125000	-75.351990
67.250000	-74.255295
67.375000	-71.335663
67.500000	-77.002617
67.625000	-78.640701
67.750000	-82.955688
67.875000	-76.117119
68.000000	-72.104240
68.125000	-78.092567
68.250000	-85.004562
68.375000	-80.462486
68.500000	-79.392242
68.625000	-73.532913
68.750000	-72.763092
68.875000	-76.733528
69.000000	-88.197311
69.125000	-80.374306
69.250000	-72.116074
69.375000	-72.411545
69.500000	-75.635574
69.625000	-73.469315
69.750000	-71.194153
69.875000	-80.936859
70.000000	-74.568840
70.125000	-79.534996
70.250000	-80.966454
70.375000	-73.199928
70.500000	-82.949196
70.625000	-81.071182
70.750000	-89.169754
70.875000	-77.306297
71.000000	-73.853600
71.125000	-79.524162
71.250000	-73.666786
71.375000	-80.018402
71.500000	-77.260582
71.625000	-85.712212
71.750000	-85.848831
71.875000	-72.636833
72.000000	-71.879517
72.125000	-73.671379
72.250000	-69.068756
72.375000	-67.700188
72.500000	-78.510773
72.625000	-77.236458
72.750000	-74.548828
72.875000	-78.573807
73.000000	-76.262917
73.125000	-72.657951
73.250000	-87.857826
73.375000	-76.758179
73.500000	-75.191734
73.625000	-73.460648
73.750000	-71.263634
73.875000	-72.042274
74.000000	-71.317696
74.125000	-76.280533
74.250000	-78.735359
74.375000	-70.566055
74.500000	-64.922813
74.625000	-49.126801
74.750000	-49.404037
74.875000	-62.594055
75.000000	-85.238792
75.125000	-75.143661
75.250000	-70.161926
75.375000	-71.214874
75.500000	-77.172577
75.625000	-94.803627
75.750000	-79.583656
75.875000	-81.879768
76.000000	-87.005920
76.125000	-90.237198
76.250000	-93.722809
76.375000	-73.007324
76.500000	-71.645699
76.625000	-77.821594
76.750000	-78.858841
76.875000	-82.226776
77.000000	-86.189659
77.125000	-79.055122
77.250000	-78.633812
77.375000	-79.351181
77.500000	-83.850830
77.625000	-73.286148
77.750000	-70.159386
77.875000	-72.934975
78.000000	-73.946625
78.125000	-78.127167
78.250000	-79.676292
78.375000	-74.983589
78.500000	-75.557678
78.625000	-84.340111
78.750000	-91.718727
78.875000	-81.829910
79.000000	-76.817886
79.125000	-74.532410
79.250000	-73.081573
79.375000	-72.238762
79.500000	-78.001205
79.625000	-79.505363
79.750000	-87.089470
79.875000	-93.655571
80.000000	-73.746796
80.125000	-79.208450
80.250000	-76.742989
80.375000	-84.040993
80.500000	-78.395546
80.625000	-83.798996
80.750000	-76.951416
80.875000	-92.302376
81.000000	-76.028015
81.125000	-74.903671
81.250000	-73.600464
81.375000	-78.038788
81.500000	-85.031792
81.625000	-81.028236
81.750000	-74.307587
81.875000	-72.685127
82.000000	-73.893356
82.125000	-70.320015
82.250000	-74.645790
82.375000	-93.227425
82.500000	-81.644691
82.625000	-77.417824
82.750000	-78.508759
82.875000	-77.702957
83.000000	-83.612518
83.125000	-77.830032
83.250000	-75.049690
83.375000	-74.879272
83.500000	-77.791679
83.625000	-77.515068
83.750000	-87.494606
83.875000	-86.443451
84.000000	-82.365532
84.125000	-77.973862
84.250000	-77.151138
84.375000	-76.234497
84.500000	-75.045341
84.625000	-77.037476
84.750000	-67.963226
84.875000	-70.195923
85.000000	-76.380005
85.125000	-80.407425
85.250000	-91.794640
85.375000	-92.669373
85.500000	-75.953247
85.625000	-72.884132
85.750000	-73.670792
85.875000	-74.826889
86.000000	-76.323982
86.125000	-79.464516
86.250000	-87.859444
86.375000	-84.306534
86.500000	-77.536491
86.625000	-81.812943
86.750000	-95.838234
86.875000	-95.583725
87.000000	-82.167343
87.125000	-76.159149
87.250000	-81.388794
87.375000	-78.946976
87.500000	-81.868179
87.625000	-73.262955
87.750000	-73.433754
87.875000	-82.184959
88.000000	-90.662247
88.125000	-93.757187
88.250000	-78.720474
88.375000	-79.084404
88.500000	-80.174500
88.625000	-79.824173
88.750000	-83.526642
88.875000	-84.445961
89.000000	-78.476036
89.125000	-76.643837
89.250000	-74.564400
89.375000	-80.173332
89.500000	-59.636669
89.625000	-56.211342
89.750000	-65.048645
89.875000	-77.121948
90.000000	-74.210724
90.125000	-71.010124
90.250000	-79.870087
90.375000	-76.297844
90.500000	-80.154160
90.625000	-75.330833
90.750000	-79.978828
90.875000	-82.130531
91.000000	-84.398453
91.125000	-83.179886
91.250000	-84.776550
91.375000	-88.335899
91.500000	-83.409203
91.625000	-78.290901
91.750000	-75.067657
91.875000	-74.606544
92.000000	-87.074654
92.125000	-78.065941
92.250000	-82.366768
92.375000	-87.747810
92.500000	-79.991501
92.625000	-76.262199
92.750000	-80.150177
92.875000	-75.319267
93.000000	-73.451485
93.125000	-73.816406
93.250000	-78.563492
93.375000	-97.172882
93.500000	-82.222595
93.625000	-76.709129
93.750000	-73.648499
93.875000	-73.021248
94.000000	-75.523094
94.125000	-80.916687
94.250000	-80.420715
94.375000	-77.381195
94.500000	-75.633118
94.625000	-87.904121
94.750000	-80.957268
94.875000	-83.032219
95.000000	-78.272522
95.125000	-78.912018
95.250000	-88.387840
95.375000	-83.033585
95.500000	-79.728531
95.625000	-78.085335
95.750000	-77.946678
95.875000	-79.346588
96.000000	-75.946960
96.125000	-102.241028
96.250000	-78.405426
96.375000	-85.777710
96.500000	-79.479630
96.625000	-75.087479
96.750000	-84.403122
96.875000	-83.051949
97.000000	-84.552505
97.125000	-76.812294
97.250000	-77.696831
97.375000	-79.728683
97.500000	-80.197899
97.625000	-92.016685
97.750000	-83.498245
97.875000	-83.439156
98.000000	-83.397469
98.125000	-80.417465
98.250000	-76.317078
98.375000	-82.196167
98.500000	-84.285797
98.625000	-84.193092
98.750000	-79.904266
98.875000	-81.304985
99.000000	-79.217087
99.125000	-74.738777
99.250000	-77.548561
99.375000	-76.680885
99.500000	-75.329712
99.625000	-76.204773
99.750000	-79.484261
99.875000	-78.784630
100.000000	-75.827629
100.125000	-76.798439
100.250000	-77.989372
100.375000	-80.416130
100.500000	-81.970039
100.625000	-84.976364
100.750000	-85.045547
100.875000	-82.729866
101.000000	-80.513947
101.125000	-76.573296
101.250000	-80.581429
101.375000	-82.467102
101.500000	-79.845383
101.625000	-75.624863
101.750000	-74.582695
101.875000	-74.757797
102.000000	-80.179100
102.125000	-82.649445
102.250000	-81.494316
102.375000	-84.660950
102.500000	-85.142738
102.625000	-78.338707
102.750000	-75.412125
102.875000	-88.218666
103.000000	-73.914307
103.125000	-78.782150
103.250000	-88.780205
103.375000	-79.587379
103.500000	-79.768257
103.625000	-84.585075
103.750000	-80.197952
103.875000	-79.281250
104.000000	-79.254448
104.125000	-85.108398
104.250000	-91.531654
104.375000	-66.779381
104.500000	-58.428265
104.625000	-61.109932
104.750000	-72.907150
104.875000	-82.241516
105.000000	-80.511566
105.125000	-79.174751
105.250000	-88.369209
105.375000	-95.862823
105.500000	-93.930923
105.625000	-86.155045
105.750000	-82.681938
105.875000	-78.881332
106.000000	-76.943817
106.125000	-75.578972
106.250000	-75.004616
106.375000	-79.472382
106.500000	-81.330551
106.625000	-75.540817
106.750000	-76.835091
106.875000	-89.559410
107.000000	-85.478378
107.125000	-74.913643
107.250000	-77.939133
107.375000	-84.250175
107.500000	-79.822601
107.625000	-80.301208
107.750000	-84.050858
107.875000	-88.896233
108.000000	-91.599007
108.125000	-98.634178
108.250000	-91.649345
108.375000	-84.069839
108.500000	-87.042892
108.625000	-83.076614
108.750000	-80.436897
108.875000	-86.959335
109.000000	-77.793877
109.125000	-93.403488
109.250000	-96.498901
109.375000	-83.158951
109.500000	-90.821838
109.625000	-92.439842
109.750000	-81.678703
109.875000	-80.915108
110.000000	-98.111206
110.125000	-100.710152
110.250000	-86.926643
110.375000	-80.448280
110.500000	-82.355568
110.625000	-86.620537
110.750000	-82.036400
110.875000	-80.394691
111.000000	-78.169090
111.125000	-76.862724
111.250000	-77.064018
111.375000	-80.402023
111.500000	-77.345245
111.625000	-76.428864
111.750000	-79.598991
111.875000	-81.688515
112.000000	-94.773750
112.125000	-85.310783
112.250000	-89.690651
112.375000	-93.618011
112.500000	-82.949615
112.625000	-74.801102
112.750000	-75.405952
112.875000	-82.092049
113.000000	-79.800903
113.125000	-86.846764
113.250000	-88.437263
113.375000	-83.097954
113.500000	-81.502609
113.625000	-86.177650
113.750000	-92.342819
113.875000	-81.345383
114.000000	-76.988602
114.125000	-76.683525
114.250000	-79.667831
114.375000	-92.633789
114.500000	-81.277779
114.625000	-84.411980
114.750000	-91.417633
114.875000	-91.641678
115.000000	-96.403992
115.125000	-83.870384
115.250000	-81.583481
115.375000	-87.349800
115.500000	-84.829956
115.625000	-80.209099
115.750000	-80.532349
115.875000	-81.843483
116.000000	-100.160049
116.125000	-80.952240
116.250000	-79.313560
116.375000	-78.239365
116.500000	-80.132935
116.625000	-82.196220
116.750000	-84.863174
116.875000	-86.302094
117.000000	-92.459923
117.125000	-83.533142
117.250000	-88.771614
117.375000	-109.790962
117.500000	-86.684067
117.625000	-76.703186
117.750000	-77.237038
117.875000	-91.723343
118.000000	-87.046227
118.125000	-82.729195
118.250000	-87.979980
118.375000	-94.228844
118.500000	-99.902718
118.625000	-85.423866
118.750000	-84.804405
118.875000	-81.932648
119.000000	-78.431244
119.125000	-72.427528
119.250000	-56.077465
119.375000	-40.669888
119.500000	-39.664028
119.625000	-51.846004
119.750000	-69.137886
119.875000	-78.990318
120.000000	-86.618774
120.125000	-81.895386
120.250000	-92.406738
120.375000	-97.581482
120.500000	-96.238678
120.625000	-82.302078
120.750000	-82.188339
120.875000	-84.577751
121.000000	-94.953751
121.125000	-88.755226
121.250000	-86.568130
121.375000	-84.896248
121.500000	-82.932739
121.625000	-79.714920
121.750000	-86.063538
121.875000	-85.044548
122.000000	-83.122398
122.125000	-91.065849
122.250000	-91.764008
122.375000	-92.256317
122.500000	-87.661171
122.625000	-95.438820
122.750000	-103.860565
122.875000	-81.185677
123.000000	-81.323830
123.125000	-101.574150
123.250000	-79.783211
123.375000	-79.205719
123.500000	-81.122719
123.625000	-77.153008
123.750000	-76.214088
123.875000	-80.715881
124.000000	-82.892426
124.125000	-82.247849
124.250000	-85.890259
124.375000	-86.068924
124.500000	-85.530182
124.625000	-105.091118
124.750000	-82.628181
124.875000	-79.964539
125.000000	-87.467796
125.125000	-84.638588
125.250000	-80.791664
125.375000	-80.041649
125.500000	-83.918999
125.625000	-82.168663
125.750000	-81.764915
125.875000	-86.744240
126.000000	-87.088013
126.125000	-88.808273
126.250000	-84.572243
126.375000	-88.188095
126.500000	-91.549484
126.625000	-85.262939
126.750000	-80.655327
126.875000	-84.627098
127.000000	-89.515717
127.125000	-89.029388
127.250000	-96.035690
127.375000	-90.556999
127.500000	-84.409485
127.625000	-82.433418
127.750000	-87.311699
127.875000	-91.738594
128.000000	-86.369278
128.125000	-87.691467
128.250000	-89.942886
128.375000	-92.228340
128.500000	-90.270889
128.625000	-104.591415
128.750000	-89.241806
128.875000	-82.988808
129.000000	-82.433182
129.125000	-91.937119
129.250000	-91.085846
129.375000	-85.959236
129.500000	-82.991211
129.625000	-90.883080
129.750000	-77.869080
129.875000	-78.095642
130.000000	-87.330727
130.125000	-84.114487
130.250000	-84.253372
130.375000	-82.905884
130.500000	-88.836372
130.625000	-87.460640
130.750000	-84.547295
130.875000	-91.301750
131.000000	-98.261559
131.125000	-85.745651
131.250000	-80.135902
131.375000	-84.179642
131.500000	-84.474274
131.625000	-83.278717
131.750000	-84.767761
131.875000	-91.129204
132.000000	-84.340904
132.125000	-82.792358
132.250000	-88.151062
132.375000	-91.037224
132.500000	-100.782265
132.625000	-94.315613
132.750000	-87.593002
132.875000	-82.586647
133.000000	-83.423485
133.125000	-97.354973
133.250000	-86.000519
133.375000	-85.536980
133.500000	-95.962509
133.625000	-90.014359
133.750000	-83.306259
133.875000	-84.631813
134.000000	-89.537033
134.125000	-79.813309
134.250000	-66.699036
134.375000	-60.981796
134.500000	-66.038445
134.625000	-88.746735
134.750000	-85.151848
134.875000	-82.203400
135.000000	-96.665619
135.125000	-83.325157
135.250000	-83.164185
135.375000	-88.256104
135.500000	-90.494873
135.625000	-85.092278
135.750000	-81.021782
135.875000	-80.178062
136.000000	-94.959671
136.125000	-85.497307
136.250000	-87.505974
136.375000	-92.298256
136.500000	-95.150284
136.625000	-86.249153
136.750000	-91.364983
136.875000	-90.144203
137.000000	-88.547646
137.125000	-85.836288
137.250000	-96.152817
137.375000	-87.996658
137.500000	-87.902802
137.625000	-89.081436
137.750000	-90.058640
137.875000	-85.357399
138.000000	-82.647285
138.125000	-89.186012
138.250000	-97.184654
138.375000	-89.713104
138.500000	-86.213135
138.625000	-101.115166
138.750000	-102.216866
138.875000	-84.364746
139.000000	-84.397423
139.125000	-81.642014
139.250000	-80.263962
139.375000	-89.557793
139.500000	-94.364662
139.625000	-100.528770
139.750000	-93.716888
139.875000	-95.292732
140.000000	-87.415283
140.125000	-89.968681
140.250000	-98.603348
140.375000	-92.774673
140.500000	-90.593704
140.625000	-94.002548
140.750000	-90.342834
140.875000	-89.273544
141.000000	-84.843910
141.125000	-84.119057
141.250000	-92.891403
141.375000	-90.877312
141.500000	-93.921196
141.625000	-91.078270
141.750000	-88.749962
141.875000	-89.167130
142.000000	-89.177895
142.125000	-90.782539
142.250000	-87.341393
142.375000	-86.289680
142.500000	-84.294235
142.625000	-86.844765
142.750000	-91.828674
142.875000	-93.462654
143.000000	-88.757011
143.125000	-95.012306
143.250000	-92.493118
143.375000	-96.123497
143.500000	-87.854042
143.625000	-83.417389
143.750000	-89.379700
143.875000	-96.825432
144.000000	-92.240089
144.125000	-91.965271
144.250000	-105.634232
144.375000	-85.806465
144.500000	-89.716377
144.625000	-92.472031
144.750000	-84.618073
144.875000	-85.182037
145.000000	-104.734352
145.125000	-93.480209
145.250000	-90.117531
145.375000	-88.140549
145.500000	-89.696297
145.625000	-89.208626
145.750000	-92.434685
145.875000	-84.100571
146.000000	-89.782234
146.125000	-97.945877
146.250000	-91.942719
146.375000	-85.424042
146.500000	-85.405113
146.625000	-104.048576
146.750000	-87.306587
146.875000	-95.074074
147.000000	-87.822990
147.125000	-89.514099
147.250000	-103.553001
147.375000	-90.597000
147.500000	-88.341599
147.625000	-85.301819
147.750000	-88.569885
147.875000	-86.370049
148.000000	-87.897118
148.125000	-91.448372
148.250000	-88.546135
148.375000	-93.403061
148.500000	-94.077431
148.625000	-94.104431
148.750000	-96.233292
148.875000	-96.106873
149.000000	-87.833969
149.125000	-80.702194
149.250000	-64.169060
149.375000	-63.238697
149.500000	-76.257011
149.625000	-84.878258
149.750000	-91.140038
149.875000	-88.425789
150.000000	-87.180916
150.125000	-90.073265
150.250000	-96.095093
150.375000	-93.045853
150.500000	-94.249908
150.625000	-93.898766
150.750000	-89.379150
150.875000	-88.207207
151.000000	-86.290421
151.125000	-89.369446
151.250000	-95.001282
151.375000	-90.363800
151.500000	-97.505981
151.625000	-93.640869
151.750000	-84.668846
151.875000	-86.032997
152.000000	-92.588181
152.125000	-98.021523
152.250000	-95.437691
152.375000	-92.952728
152.500000	-89.427185
152.625000	-90.611313
152.750000	-101.791328
152.875000	-98.961182
153.000000	-93.002075
153.125000	-90.200081
153.250000	-93.956940
153.375000	-94.659706
153.500000	-85.882317
153.625000	-83.113373
153.750000	-86.973480
153.875000	-95.207161
154.000000	-92.384758
154.125000	-86.967560
154.250000	-86.628860
154.375000	-87.934013
154.500000	-94.452782
154.625000	-98.177834
154.750000	-91.566727
154.875000	-88.780579
155.000000	-93.817863
155.125000	-84.676193
155.250000	-85.501823
155.375000	-94.187798
155.500000	-92.350281
155.625000	-86.489365
155.750000	-89.705635
155.875000	-96.072319
156.000000	-94.212051
156.125000	-96.701500
156.250000	-103.369812
156.375000	-103.389069
156.500000	-98.205070
156.625000	-103.335930
156.750000	-90.453606
156.875000	-88.644157
157.000000	-95.076447
157.125000	-88.940643
157.250000	-87.013931
157.375000	-86.713806
157.500000	-85.961044
157.625000	-84.212761
157.750000	-84.870186
157.875000	-90.355927
158.000000	-94.381752
158.125000	-95.854660
158.250000	-92.189178
158.375000	-95.207130
158.500000	-91.033279
158.625000	-87.183838
158.750000	-91.279366
158.875000	-95.017662
159.000000	-98.119278
159.125000	-96.970024
159.250000	-95.955429
159.375000	-91.600410
159.500000	-88.897675
159.625000	-87.402069
159.750000	-93.400391
159.875000	-96.804787
160.000000	-100.323494
160.125000	-105.302597
160.250000	-90.935654
160.375000	-88.872360
160.500000	-87.331215
160.625000	-88.397072
160.750000	-91.850754
160.875000	-95.577148
161.000000	-95.798584
161.125000	-91.229317
161.250000	-91.959602
161.375000	-98.150322
161.500000	-90.066330
161.625000	-85.087189
161.750000	-90.658775
161.875000	-86.300316
162.000000	-95.626030
162.125000	-86.844536
162.250000	-85.668892
162.375000	-86.498535
162.500000	-87.704819
162.625000	-88.507851
162.750000	-89.788490
162.875000	-98.829315
163.000000	-99.612755
163.125000	-92.313988
163.250000	-88.606216
163.375000	-90.922653
163.500000	-92.703773
163.625000	-91.655487
163.750000	-90.819611
163.875000	-99.276604
164.000000	-96.140984
164.125000	-73.385506
164.250000	-66.582047
164.375000	-71.657448
164.500000	-88.230179
164.625000	-89.108398
164.750000	-109.036400
164.875000	-103.610474
165.000000	-91.213158
165.125000	-93.317711
165.250000	-104.722542
165.375000	-100.844429
165.500000	-98.304527
165.625000	-95.094452
165.750000	-91.820808
165.875000	-91.265366
166.000000	-88.392845
166.125000	-88.377678
166.250000	-87.872780
166.375000	-90.305992
166.500000	-90.090561
166.625000	-87.261093
166.750000	-90.428757
166.875000	-98.832230
167.000000	-101.935356
167.125000	-99.362617
167.250000	-90.423012
167.375000	-89.385284
167.500000	-95.293655
167.625000	-92.371521
167.750000	-90.824280
167.875000	-99.669350
168.000000	-91.797165
168.125000	-90.386047
168.250000	-102.934891
168.375000	-102.203773
168.500000	-88.968491
168.625000	-85.726753
168.750000	-87.031746
168.875000	-89.263786
169.000000	-92.202026
169.125000	-95.831482
169.250000	-99.625511
169.375000	-90.192764
169.500000	-87.624435
169.625000	-90.524788
169.750000	-92.514236
169.875000	-86.722176
170.000000	-88.270370
170.125000	-92.134178
170.250000	-97.606201
170.375000	-91.571037
170.500000	-90.645126
170.625000	-95.789726
170.750000	-89.996681
170.875000	-90.694069
171.000000	-89.978516
171.125000	-87.393814
171.250000	-88.005768
171.375000	-95.105446
171.500000	-92.717903
171.625000	-89.296196
171.750000	-104.512291
171.875000	-95.579628
172.000000	-91.992310
172.125000	-97.964035
172.250000	-95.740341
172.375000	-90.828018
172.500000	-90.253120
172.625000	-92.093163
172.750000	-87.252609
172.875000	-90.758804
173.000000	-106.931618
173.125000	-106.379936
173.250000	-103.336342
173.375000	-102.323975
173.500000	-93.205521
173.625000	-90.331291
173.750000	-92.835175
173.875000	-100.407516
174.000000	-98.792267
174.125000	-95.083763
174.250000	-107.177353
174.375000	-91.957253
174.500000	-92.866081
174.625000	-94.555199
174.750000	-91.907379
174.875000	-89.798462
175.000000	-96.395042
175.125000	-91.775009
175.250000	-94.221619
175.375000	-92.247124
175.500000	-88.468163
175.625000	-86.613571
175.750000	-95.505959
175.875000	-93.753624
176.000000	-100.361389
176.125000	-110.642670
176.250000	-92.254730
176.375000	-92.048698
176.500000	-95.303932
176.625000	-94.312912
176.750000	-108.979607
176.875000	-89.546303
177.000000	-87.955055
177.125000	-87.637711
177.250000	-90.956306
177.375000	-94.652130
177.500000	-94.009216
177.625000	-96.318230
177.750000	-88.367325
177.875000	-89.793365
178.000000	-88.089752
178.125000	-91.168945
178.250000	-139.027390
178.375000	-93.038078
178.500000	-95.903595
178.625000	-94.611588
178.750000	-89.057373
178.875000	-97.996124
179.000000	-80.485512
179.125000	-70.745209
179.250000	-73.237328
179.375000	-93.480949
179.500000	-90.893661
179.625000	-96.387093
179.750000	-100.373955
179.875000	-93.965279
180.000000	-95.173645
180.125000	-96.236061
180.250000	-95.100761
180.375000	-92.158058
180.500000	-105.563835
180.625000	-95.945236
180.750000	-92.127197
180.875000	-90.630966
181.000000	-98.417526
181.125000	-93.990746
181.250000	-98.466995
181.375000	-93.782745
181.500000	-94.199211
181.625000	-97.226585
181.750000	-106.730835
181.875000	-96.908615
182.000000	-100.734947
182.125000	-92.364357
182.250000	-89.738655
182.375000	-98.019295
182.500000	-88.383629
182.625000	-89.640701
182.750000	-96.528717
182.875000	-97.545921
183.000000	-95.313110
183.125000	-87.349480
183.250000	-85.158821
183.375000	-86.927223
183.500000	-94.217407
183.625000	-99.821220
183.750000	-103.133232
183.875000	-100.662201
184.000000	-91.533890
184.125000	-86.926041
184.250000	-87.453735
184.375000	-96.785248
184.500000	-97.140312
184.625000	-100.304237
184.750000	-104.170181
184.875000	-98.493378
185.000000	-92.866081
185.125000	-94.829788
185.250000	-96.119881
185.375000	-101.003487
185.500000	-91.965096
185.625000	-92.093330
185.750000	-97.731049
185.875000	-98.493126
186.000000	-97.244743
186.125000	-92.076668
186.250000	-93.143448
186.375000	-98.736305
186.500000	-93.880959
186.625000	-92.422539
186.750000	-94.082596
186.875000	-104.839096
187.000000	-96.642151
187.125000	-92.411804
187.250000	-92.764435
187.375000	-94.163811
187.500000	-93.081474
187.625000	-101.133034
187.750000	-96.477928
187.875000	-97.428421
188.000000	-97.788002
188.125000	-98.981194
188.250000	-106.935181
188.375000	-99.650352
188.500000	-108.975220
188.625000	-99.787544
188.750000	-92.887009
188.875000	-92.792587
189.000000	-93.949776
189.125000	-137.371796
189.250000	-97.715050
189.375000	-95.922531
189.500000	-91.990273
189.625000	-89.979179
189.750000	-90.953255
189.875000	-92.681625
190.000000	-97.320900
190.125000	-91.642517
190.250000	-91.104141
190.375000	-91.440483
190.500000	-88.471169
190.625000	-90.731598
190.750000	-95.750488
190.875000	-96.301857
191.000000	-109.150230
191.125000	-95.631439
191.250000	-97.721886
191.375000	-104.195808
191.500000	-108.847290
191.625000	-95.671181
191.750000	-95.828133
191.875000	-92.822433
192.000000	-95.247963
192.125000	-98.075172
192.250000	-99.497345
192.375000	-92.057304
192.500000	-93.981651
192.625000	-95.752281
192.750000	-108.189316
192.875000	-90.666977
193.000000	-94.073196
193.125000	-94.221718
193.250000	-103.234886
193.375000	-107.573769
193.500000	-97.215874
193.625000	-91.515198
193.750000	-89.479874
193.875000	-94.546341
194.000000	-88.471420
194.125000	-82.380081
194.250000	-87.849297
194.375000	-95.478195
194.500000	-95.354439
194.625000	-93.372276
194.750000	-95.298813
194.875000	-97.516037
195.000000	-93.489304
195.125000	-92.197639
195.250000	-102.977539
195.375000	-94.232674
195.500000	-98.581673
195.625000	-96.499001
195.750000	-92.199165
195.875000	-89.255493
196.000000	-90.170929
196.125000	-98.131287
196.250000	-93.141876
196.375000	-91.015915
196.500000	-92.141670
196.625000	-93.743614
196.750000	-102.078514
196.875000	-93.995201
197.000000	-95.396400
197.125000	-97.948341
197.250000	-94.581863
197.375000	-100.068726
197.500000	-107.639725
197.625000	-94.617905
197.750000	-87.730644
197.875000	-86.128029
198.000000	-96.395424
198.125000	-93.881485
198.250000	-96.438019
198.375000	-92.885658
198.500000	-90.677032
198.625000	-105.008263
198.750000	-92.524208
198.875000	-91.905029
199.000000	-92.928230
199.125000	-90.646866
199.250000	-93.708992
199.375000	-104.759285
199.500000	-93.461441
199.625000	-91.533386
199.750000	-98.739250
199.875000	-106.139061
200.000000	-97.570335
200.125000	-101.221962
200.250000	-91.048332
200.375000	-92.556770
200.500000	-101.220085
200.625000	-93.569435
200.750000	-94.539230
200.875000	-101.033432
201.000000	-94.466553
201.125000	-90.619377
201.250000	-89.172295
201.375000	-93.383545
201.500000	-95.521591
201.625000	-105.114716
201.750000	-92.355232
201.875000	-93.875687
202.000000	-96.332878
202.125000	-93.890350
202.250000	-96.307091
202.375000	-93.848091
202.500000	-93.168365
202.625000	-97.415283
202.750000	-96.985939
202.875000	-106.784279
203.000000	-102.411682
203.125000	-98.796677
203.250000	-99.052979
203.375000	-104.371849
203.500000	-99.479897
203.625000	-93.385910
203.750000	-91.403091
203.875000	-89.582359
204.000000	-93.742210
204.125000	-96.589485
204.250000	-92.197235
204.375000	-89.101105
204.500000	-93.915810
204.625000	-100.960091
204.750000	-101.235611
204.875000	-103.169273
205.000000	-95.707214
205.125000	-100.701027
205.250000	-103.154022
205.375000	-97.608284
205.500000	-94.932663
205.625000	-98.993858
205.750000	-101.116959
205.875000	-94.908768
206.000000	-92.483574
206.125000	-94.679840
206.250000	-90.610603
206.375000	-88.599052
206.500000	-91.406708
206.625000	-90.364258
206.750000	-96.888283
206.875000	-91.472046
207.000000	-89.525063
207.125000	-93.291489
207.250000	-96.684273
207.375000	-93.438927
207.500000	-112.625237
207.625000	-99.294556
207.750000	-97.948662
207.875000	-98.821136
208.000000	-95.589882
208.125000	-91.157997
208.250000	-94.334732
208.375000	-102.717957
208.500000	-97.132149
208.625000	-93.086510
208.750000	-95.602478
208.875000	-97.216789
209.000000	-91.944252
209.125000	-86.294121
209.250000	-94.982239
209.375000	-99.573967
209.500000	-92.143555
209.625000	-93.187386
209.750000	-98.417328
209.875000	-104.094170
210.000000	-101.829865
210.125000	-93.333466
210.250000	-89.008316
210.375000	-86.931274
210.500000	-90.215042
210.625000	-98.953354
210.750000	-99.774475
210.875000	-94.596535
211.000000	-94.977676
211.125000	-104.647606
211.250000	-92.590393
211.375000	-95.809135
211.500000	-97.309875
211.625000	-94.051949
211.750000	-93.842773
211.875000	-100.441452
212.000000	-104.421265
212.125000	-96.070602
212.250000	-93.048302
212.375000	-93.168182
212.500000	-99.865501
212.625000	-92.925995
212.750000	-104.201614
212.875000	-92.358200
213.000000	-88.308517
213.125000	-89.912628
213.250000	-102.726616
213.375000	-86.252831
213.500000	-89.213280
213.625000	-100.121490
213.750000	-91.344185
213.875000	-91.643158
214.000000	-107.436508
214.125000	-95.551964
214.250000	-97.630531
214.375000	-105.951935
214.500000	-99.955650
214.625000	-97.025459
214.750000	-102.765488
214.875000	-97.193878
215.000000	-97.197510
215.125000	-102.032249
215.250000	-97.099251
215.375000	-102.103531
215.500000	-95.485641
215.625000	-94.434525
215.750000	-98.154076
215.875000	-93.629097
216.000000	-98.656921
216.125000	-95.171425
216.250000	-93.469017
216.375000	-99.899269
216.500000	-94.073814
216.625000	-94.461769
216.750000	-96.319046
216.875000	-94.204453
217.000000	-96.035896
217.125000	-102.121071
217.250000	-93.868347
217.375000	-101.074425
217.500000	-95.604973
217.625000	-94.092133
217.750000	-101.298058
217.875000	-97.400803
218.000000	-94.541946
218.125000	-98.993889
218.250000	-120.555023
218.375000	-95.805901
218.500000	-91.187744
218.625000	-95.162872
218.750000	-97.551628
218.875000	-94.907906
219.000000	-88.356384
219.125000	-87.235146
219.250000	-97.326317
219.375000	-105.200378
219.500000	-112.873756
219.625000	-103.691727
219.750000	-97.625504
219.875000	-92.425957
220.000000	-96.419456
220.125000	-105.849007
220.250000	-110.622826
220.375000	-94.059250
220.500000	-87.760445
220.625000	-88.631851
220.750000	-98.926567
220.875000	-104.129883
221.000000	-103.820724
221.125000	-109.462852
221.250000	-100.315926
221.375000	-99.603752
221.500000	-98.331154
221.625000	-98.892586
221.750000	-89.825531
221.875000	-89.317627
222.000000	-94.144684
222.125000	-99.818481
222.250000	-102.666824
222.375000	-99.728340
222.500000	-97.044411
222.625000	-100.186295
222.750000	-93.752617
222.875000	-87.651649
223.000000	-87.673035
223.125000	-92.119026
223.250000	-98.327850
223.375000	-106.329102
223.500000	-100.749405
223.625000	-92.686813
223.750000	-95.891418
223.875000	-100.647163
224.000000	-89.391403
224.125000	-88.552444
224.250000	-98.117653
224.375000	-91.574898
224.500000	-94.425140
224.625000	-95.874687
224.750000	-97.836678
224.875000	-90.405396
225.000000	-89.471054
225.125000	-97.718994
225.250000	-109.956444
225.375000	-97.913803
225.500000	-90.412720
225.625000	-88.799828
225.750000	-92.773697
225.875000	-100.156075
226.000000	-106.179825
226.125000	-94.996323
226.250000	-96.420448
226.375000	-107.118813
226.500000	-107.228935
226.625000	-101.761337
226.750000	-95.955925
226.875000	-101.393585
227.000000	-93.142792
227.125000	-93.971031
227.250000	-90.846878
227.375000	-94.603279
227.500000	-95.694237
227.625000	-99.703362
227.750000	-100.496994
227.875000	-97.726921
228.000000	-93.502930
228.125000	-89.378784
228.250000	-91.787399
228.375000	-92.129883
228.500000	-91.539284
228.625000	-96.135284
228.750000	-106.831276
228.875000	-97.239731
229.000000	-92.398598
229.125000	-97.864532
229.250000	-101.430428
229.375000	-99.774651
229.500000	-102.246086
229.625000	-93.178146
229.750000	-98.446968
229.875000	-104.177040
230.000000	-98.680267
230.125000	-99.102737
230.250000	-97.225792
230.375000	-93.228355
230.500000	-94.299728
230.625000	-96.118164
230.750000	-95.020851
230.875000	-95.981049
231.000000	-106.988037
231.125000	-93.654030
231.250000	-96.661919
231.375000	-92.463318
231.500000	-100.133133
231.625000	-100.895805
231.750000	-94.597702
231.875000	-93.853989
232.000000	-111.002991
232.125000	-102.059471
232.250000	-102.725494
232.375000	-98.886978
232.500000	-100.598106
232.625000	-100.243614
232.750000	-97.443558
232.875000	-101.722946
233.000000	-97.037109
233.125000	-95.786316
233.250000	-93.225914
233.375000	-97.135330
233.500000	-92.666397
233.625000	-92.223473
233.750000	-98.090324
233.875000	-104.988251
234.000000	-108.920761
234.125000	-95.175056
234.250000	-91.019119
234.375000	-88.359245
234.500000	-96.457359
234.625000	-93.634392
234.750000	-94.608612
234.875000	-110.119751
235.000000	-95.382729
235.125000	-95.660995
235.250000	-94.838051
235.375000	-94.043938
235.500000	-96.300438
235.625000	-98.261955
235.750000	-97.758720
235.875000	-98.284882
236.000000	-99.244125
236.125000	-97.231133
236.250000	-100.233330
236.375000	-108.821274
236.500000	-102.354294
236.625000	-107.003922
236.750000	-100.045998
236.875000	-106.539902
237.000000	-97.012222
237.125000	-98.194054
237.250000	-98.713135
237.375000	-99.621361
237.500000	-97.316536
237.625000	-104.816132
237.750000	-89.343338
237.875000	-89.286194
238.000000	-118.406525
238.125000	-88.936020
238.250000	-90.691818
238.375000	-109.973618
238.500000	-99.361755
238.625000	-87.784004
238.750000	-75.194641
238.875000	-65.721741
239.000000	-69.830231
239.125000	-93.369049
239.250000	-94.834625
239.375000	-100.300331
239.500000	-101.942833
239.625000	-98.576271
239.750000	-99.372269
239.875000	-95.792084
240.000000	-102.028946
240.125000	-107.513916
240.250000	-111.288109
240.375000	-95.223724
240.500000	-99.302094
240.625000	-94.734482
240.750000	-93.664963
240.875000	-97.082565
241.000000	-89.480011
241.125000	-97.689911
241.250000	-92.447136
241.375000	-96.924881
241.500000	-94.901207
241.625000	-102.273865
241.750000	-99.598999
241.875000	-97.686897
242.000000	-100.138580
242.125000	-104.416512
242.250000	-96.437279
242.375000	-91.500084
242.500000	-91.936676
242.625000	-93.194832
242.750000	-99.121765
242.875000	-106.272408
243.000000	-99.194412
243.125000	-97.064919
243.250000	-95.652016
243.375000	-92.470055
243.500000	-95.416763
243.625000	-99.836662
243.750000	-102.097160
243.875000	-100.180481
244.000000	-102.514832
244.125000	-93.626396
244.250000	-93.106979
244.375000	-94.080383
244.500000	-94.320183
244.625000	-111.282494
244.750000	-97.129929
244.875000	-94.036507
245.000000	-89.937416
245.125000	-93.601814
245.250000	-100.356415
245.375000	-96.031242
245.500000	-96.150131
245.625000	-94.193787
245.750000	-93.128006
245.875000	-116.909462
246.000000	-94.073776
246.125000	-97.785316
246.250000	-100.378853
246.375000	-92.083069
246.500000	-88.416084
246.625000	-95.518272
246.750000	-105.875160
246.875000	-103.325813
247.000000	-98.102875
247.125000	-96.829163
247.250000	-96.843117
247.375000	-93.134933
247.500000	-96.523514
247.625000	-93.922081
247.750000	-108.395805
247.875000	-95.995872
248.000000	-101.310852
248.125000	-94.624649
248.250000	-100.714256
248.375000	-96.684692
248.500000	-99.472305
248.625000	-95.730133
248.750000	-96.931030
248.875000	-98.051811
249.000000	-105.948700
249.125000	-96.219955
249.250000	-91.705673
249.375000	-94.902313
249.500000	-102.126701
249.625000	-96.305168
249.750000	-93.588860
249.875000	-89.585968
250.000000	-89.027031
250.125000	-91.276253
250.250000	-99.022285
250.375000	-106.709358
250.500000	-99.375587
250.625000	-102.646591
250.750000	-95.401672
250.875000	-97.543083
251.000000	-96.920250
251.125000	-101.756271
251.250000	-99.040543
251.375000	-96.087418
251.500000	-92.018745
251.625000	-95.517830
251.750000	-97.854942
251.875000	-94.495651
252.000000	-94.838318
252.125000	-92.778870
252.250000	-99.102722
252.375000	-96.470749
252.500000	-91.678986
252.625000	-95.342155
252.750000	-98.913872
252.875000	-92.444664
253.000000	-93.974190
253.125000	-99.467644
253.250000	-97.308105
253.375000	-98.723755
253.500000	-100.095322
253.625000	-99.134552
253.750000	-82.947685
253.875000	-80.270409
254.000000	-90.357010
254.125000	-93.796898
254.250000	-93.179756
254.375000	-106.494995
254.500000	-98.323647
254.625000	-113.104111
254.750000	-98.794350
254.875000	-100.589592
255.000000	-105.032097
255.125000	-98.879417
255.250000	-99.895317
255.375000	-93.443169
255.500000	-96.910889
255.625000	-100.393608
255.750000	-95.934059
255.875000	-95.638077
