Frequency (Hz)	Level (dB)
0.125000	-31.842453
0.250000	-63.539394
0.375000	-59.542431
0.500000	-58.301674
0.625000	-56.374302
0.750000	-54.503498
0.875000	-53.936977
1.000000	-51.751034
1.125000	-50.860180
1.250000	-49.817905
1.375000	-47.135960
1.500000	-46.835220
1.625000	-44.908039
1.750000	-44.330193
1.875000	-43.713913
2.000000	-42.322231
2.125000	-42.292957
2.250000	-41.100273
2.375000	-40.561527
2.500000	-40.496281
2.625000	-39.244278
2.750000	-39.219753
2.875000	-38.988041
3.000000	-37.709293
3.125000	-37.949871
3.250000	-37.118233
3.375000	-36.692852
3.500000	-36.957458
3.625000	-35.931854
3.750000	-35.805008
3.875000	-35.504646
4.000000	-34.706417
4.125000	-34.965183
4.250000	-34.295246
4.375000	-33.974606
4.500000	-34.227486
4.625000	-33.228050
4.750000	-33.510788
4.875000	-33.444683
5.000000	-32.631409
5.125000	-32.981335
5.250000	-32.489693
5.375000	-32.230858
5.500000	-32.615093
5.625000	-31.862185
5.750000	-31.922626
5.875000	-31.916586
6.000000	-31.331350
6.125000	-31.680437
6.250000	-31.227060
6.375000	-31.051270
6.500000	-31.456730
6.625000	-30.907612
6.750000	-31.139744
6.875000	-31.179646
7.000000	-30.691978
7.125000	-31.203968
7.250000	-30.937506
7.375000	-30.866541
7.500000	-31.363087
7.625000	-30.909605
7.750000	-31.159811
7.875000	-31.367313
8.000000	-30.971954
8.125000	-31.543709
8.250000	-31.436069
8.375000	-31.343668
8.500000	-31.982090
8.625000	-31.703087
8.750000	-31.988436
8.875000	-32.386211
9.000000	-32.081642
9.125000	-32.601223
9.250000	-32.616371
9.375000	-32.449081
9.500000	-33.130508
9.625000	-32.794426
9.750000	-32.992146
9.875000	-33.513786
10.000000	-32.948143
10.125000	-33.403828
10.250000	-33.421215
10.375000	-32.897293
10.500000	-33.430038
10.625000	-32.906162
10.750000	-32.707695
10.875000	-33.146507
11.000000	-32.382629
11.125000	-32.507126
11.250000	-32.460941
11.375000	-31.762480
11.500000	-32.198673
11.625000	-31.646481
11.750000	-31.359873
11.875000	-31.806339
12.000000	-31.153976
12.125000	-31.339201
12.250000	-31.374479
12.375000	-30.894402
12.500000	-31.389132
12.625000	-31.052011
12.750000	-31.066200
12.875000	-31.552546
13.000000	-31.073675
13.125000	-31.400335
13.250000	-31.670588
13.375000	-31.403379
13.500000	-32.030022
13.625000	-31.943443
13.750000	-31.938457
13.875000	-32.605034
14.000000	-32.243690
14.125000	-32.522720
14.250000	-32.892868
14.375000	-32.357616
14.500000	-32.879833
14.625000	-32.750904
14.750000	-32.281864
14.875000	-32.798717
15.000000	-32.157234
15.125000	-32.036430
15.250000	-32.322094
15.375000	-31.573563
15.500000	-31.811012
15.625000	-31.602318
15.750000	-31.126015
15.875000	-31.645182
16.000000	-31.098135
16.125000	-31.073816
16.250000	-31.409052
16.375000	-30.838573
16.500000	-31.349703
16.625000	-31.409052
16.750000	-31.174231
16.875000	-31.822098
17.000000	-31.577471
17.125000	-31.763584
17.250000	-32.290897
17.375000	-31.906229
17.500000	-32.414024
17.625000	-32.591724
17.750000	-32.125141
17.875000	-32.760738
18.000000	-32.376972
18.125000	-32.033237
18.250000	-32.461327
18.375000	-31.664179
18.500000	-31.908611
18.625000	-31.972080
18.750000	-31.271490
18.875000	-31.747841
19.000000	-31.358160
19.125000	-31.109303
19.250000	-31.673454
19.375000	-31.153282
19.500000	-31.485432
19.625000	-31.762201
19.750000	-31.423792
19.875000	-32.141247
20.000000	-32.074898
20.125000	-31.991755
20.250000	-32.717411
20.375000	-32.284744
20.500000	-32.412853
20.625000	-32.741894
20.750000	-32.053387
20.875000	-32.395645
21.000000	-32.130951
21.125000	-31.574949
21.250000	-31.996397
21.375000	-31.363543
21.500000	-31.365696
21.625000	-31.646441
21.750000	-31.020561
21.875000	-31.441736
22.000000	-31.404104
22.125000	-31.207235
22.250000	-31.913132
22.375000	-31.653345
22.500000	-31.889027
22.625000	-32.497627
22.750000	-32.035919
22.875000	-32.456165
23.000000	-32.560795
23.125000	-31.996698
23.250000	-32.558022
23.375000	-32.077618
23.500000	-31.793610
23.625000	-32.198994
23.750000	-31.405296
23.875000	-31.576771
24.000000	-31.622583
24.125000	-31.169043
24.250000	-31.797039
24.375000	-31.530411
24.500000	-31.575083
24.625000	-32.231522
24.750000	-31.833591
24.875000	-32.249908
25.000000	-32.528179
25.125000	-32.013279
25.250000	-32.524746
25.375000	-32.219112
25.500000	-31.756882
25.625000	-32.202381
25.750000	-31.484354
25.875000	-31.549356
26.000000	-31.744465
26.125000	-31.127804
26.250000	-31.690340
26.375000	-31.566837
26.500000	-31.453388
26.625000	-32.221405
26.750000	-31.877745
26.875000	-32.180191
27.000000	-32.635826
27.125000	-32.018814
27.250000	-32.461639
27.375000	-32.294823
27.500000	-31.747728
27.625000	-32.237591
27.750000	-31.538998
27.875000	-31.445576
28.000000	-31.835281
28.125000	-31.269009
28.250000	-31.791492
28.375000	-31.883926
28.500000	-31.691235
28.625000	-32.391819
28.750000	-32.069607
28.875000	-32.218460
29.000000	-32.777267
29.125000	-32.097561
29.250000	-32.290180
29.375000	-32.271805
29.500000	-31.531027
29.625000	-32.018551
29.750000	-31.533060
29.875000	-31.400015
30.000000	-31.919794
30.125000	-31.378847
30.250000	-31.955627
30.375000	-32.249134
30.500000	-31.857771
30.625000	-32.588337
30.750000	-32.352886
30.875000	-32.032604
31.000000	-32.544537
31.125000	-31.806622
31.250000	-31.878389
31.375000	-32.036930
31.500000	-31.376661
31.625000	-31.984203
31.750000	-31.789799
31.875000	-31.658651
32.000000	-32.437923
32.125000	-32.037170
32.250000	-32.340168
32.375000	-32.732128
32.500000	-32.039719
32.625000	-32.425285
32.750000	-32.145645
32.875000	-31.603630
33.000000	-32.122509
33.125000	-31.466221
33.250000	-31.650579
33.375000	-32.074017
33.500000	-31.560097
33.625000	-32.255562
33.750000	-32.356022
33.875000	-32.079956
34.000000	-32.725040
34.125000	-32.186920
34.250000	-32.073601
34.375000	-32.459049
34.500000	-31.619209
34.625000	-32.008366
34.750000	-31.975052
34.875000	-31.549948
35.000000	-32.350571
35.125000	-32.056828
35.250000	-32.196167
35.375000	-32.838844
35.500000	-32.196976
35.625000	-32.443470
35.750000	-32.390755
35.875000	-31.638042
36.000000	-32.179474
36.125000	-31.732756
36.250000	-31.604490
36.375000	-32.268070
36.500000	-31.813774
36.625000	-32.334400
36.750000	-32.704079
36.875000	-32.144531
37.000000	-32.785572
37.125000	-32.409702
37.250000	-31.879446
37.375000	-32.430122
37.500000	-31.675192
37.625000	-31.890539
37.750000	-32.211067
37.875000	-31.765064
38.000000	-32.549019
38.125000	-32.516979
38.250000	-32.313118
38.375000	-32.937485
38.500000	-32.157967
38.625000	-32.106884
38.750000	-32.360950
38.875000	-31.590731
39.000000	-32.199501
39.125000	-32.105915
39.250000	-31.851000
39.375000	-32.750092
39.500000	-32.357052
39.625000	-32.403748
39.750000	-32.879269
39.875000	-32.043781
40.000000	-32.363297
40.125000	-32.232906
40.250000	-31.732639
40.375000	-32.510487
40.500000	-32.094360
40.625000	-32.307804
40.750000	-32.984108
40.875000	-32.350048
41.000000	-32.737621
41.125000	-32.716476
41.250000	-31.962492
41.375000	-32.494133
41.500000	-31.954369
41.625000	-31.907919
41.750000	-32.598534
41.875000	-32.105778
42.000000	-32.601776
42.125000	-32.909595
42.250000	-32.323269
42.375000	-32.916866
42.500000	-32.419163
42.625000	-32.085281
42.750000	-32.689537
42.875000	-31.938822
43.000000	-32.480919
43.125000	-32.856613
43.250000	-32.389065
43.375000	-33.083275
43.500000	-32.817574
43.625000	-32.348965
43.750000	-32.849705
43.875000	-32.034874
44.000000	-32.266094
44.125000	-32.701973
44.250000	-32.181824
44.375000	-33.022888
44.500000	-32.945431
44.625000	-32.528221
44.750000	-33.224289
44.875000	-32.470066
45.000000	-32.437168
45.125000	-32.848812
45.250000	-32.148838
45.375000	-32.897797
45.500000	-32.957825
45.625000	-32.709423
45.750000	-33.442665
45.875000	-32.758736
46.000000	-32.603962
46.125000	-33.018032
46.250000	-32.171120
46.375000	-32.712708
46.500000	-32.817196
46.625000	-32.536839
46.750000	-33.520996
46.875000	-33.061974
47.000000	-32.881489
47.125000	-33.442047
47.250000	-32.522907
47.375000	-32.939018
47.500000	-33.095116
47.625000	-32.746029
47.750000	-33.682289
47.875000	-33.335899
48.000000	-33.090164
48.125000	-33.665257
48.250000	-32.746769
48.375000	-32.975449
48.500000	-33.191032
48.625000	-32.646389
48.750000	-33.565639
48.875000	-33.375229
49.000000	-33.229958
49.125000	-34.017063
49.250000	-33.123646
49.375000	-33.291046
49.500000	-33.543324
49.625000	-32.870743
49.750000	-33.873627
49.875000	-33.765251
50.000000	-33.627468
50.125000	-34.328732
50.250000	-33.511097
50.375000	-33.546520
50.500000	-33.898823
50.625000	-33.080647
50.750000	-33.960587
50.875000	-33.959629
51.000000	-33.769737
51.125000	-34.705784
51.250000	-33.948044
51.375000	-33.918991
51.500000	-34.386868
51.625000	-33.645279
51.750000	-34.413937
51.875000	-34.532314
52.000000	-34.292156
52.125000	-35.142117
52.250000	-34.509628
52.375000	-34.313732
52.500000	-34.886997
52.625000	-34.118206
52.750000	-34.868023
52.875000	-35.089958
53.000000	-34.820053
53.125000	-35.754669
53.250000	-35.218300
53.375000	-35.040527
53.500000	-35.767540
53.625000	-35.027809
53.750000	-35.801414
53.875000	-36.106926
54.000000	-35.497379
54.125000	-36.445465
54.250000	-35.985050
54.375000	-35.663300
54.500000	-36.486610
54.625000	-35.855774
54.750000	-36.679993
54.875000	-37.275059
55.000000	-36.807343
55.125000	-37.777374
55.250000	-37.356377
55.375000	-37.131794
55.500000	-38.070606
55.625000	-37.425877
55.750000	-38.144016
55.875000	-38.771027
56.000000	-38.285324
56.125000	-39.093452
56.250000	-38.825710
56.375000	-38.698460
56.500000	-39.948742
56.625000	-39.610512
56.750000	-40.276173
56.875000	-40.990353
57.000000	-40.544594
57.125000	-41.524582
57.250000	-41.424343
57.375000	-41.549126
57.500000	-42.959278
57.625000	-42.868416
57.750000	-43.409019
57.875000	-44.374523
58.000000	-43.644600
58.125000	-44.913368
58.250000	-45.287693
58.375000	-45.549137
58.500000	-47.667828
58.625000	-48.350403
58.750000	-49.236141
58.875000	-50.593349
59.000000	-50.807617
59.125000	-53.512581
59.250000	-53.942299
59.375000	-55.058430
59.500000	-56.867321
59.625000	-57.392830
59.750000	-58.084328
59.875000	-59.987289
60.000000	-60.872570
60.125000	-58.924950
60.250000	-57.029526
60.375000	-54.239326
60.500000	-52.508354
60.625000	-51.121967
60.750000	-49.470432
60.875000	-49.634495
61.000000	-48.114536
61.125000	-47.762016
61.250000	-47.789303
61.375000	-46.249432
61.500000	-45.753544
61.625000	-44.929283
61.750000	-44.112850
61.875000	-44.423950
62.000000	-43.340797
62.125000	-42.994488
62.250000	-43.270065
62.375000	-41.761555
62.500000	-42.290062
62.625000	-41.766453
62.750000	-40.928246
62.875000	-41.891232
63.000000	-40.889820
63.125000	-40.514042
63.250000	-40.933083
63.375000	-39.614452
63.500000	-40.072033
63.625000	-39.958858
63.750000	-39.231438
63.875000	-39.771744
64.000000	-38.728542
64.125000	-38.370831
64.250000	-39.135372
64.375000	-38.283501
64.500000	-38.987350
64.625000	-38.923717
64.750000	-37.708851
64.875000	-38.347374
65.000000	-37.490753
65.125000	-37.390469
65.250000	-38.034359
65.375000	-37.088081
65.500000	-37.457817
65.625000	-37.541122
65.750000	-36.483089
65.875000	-37.518360
66.000000	-36.984921
66.125000	-36.821964
66.250000	-37.529507
66.375000	-36.263016
66.500000	-36.451332
66.625000	-36.737602
66.750000	-35.940155
66.875000	-36.872841
67.000000	-36.423244
67.125000	-35.739559
67.250000	-36.564022
67.375000	-35.567627
67.500000	-36.067032
67.625000	-36.598743
67.750000	-35.658829
67.875000	-36.341663
68.000000	-35.890549
68.125000	-35.202244
68.250000	-36.228420
68.375000	-35.408817
68.500000	-35.608418
68.625000	-36.062290
68.750000	-34.874043
68.875000	-35.685047
69.000000	-35.599945
69.125000	-35.197910
69.250000	-36.184052
69.375000	-35.154720
69.500000	-34.995098
69.625000	-35.642731
69.750000	-34.730419
69.875000	-35.542454
70.000000	-35.520180
70.125000	-34.593006
70.250000	-35.535461
70.375000	-34.734669
70.500000	-34.904980
70.625000	-35.803997
70.750000	-34.764641
70.875000	-35.160835
71.000000	-35.104652
71.125000	-34.242481
71.250000	-35.421154
71.375000	-34.895695
71.500000	-34.640385
71.625000	-35.428619
71.750000	-34.247467
71.875000	-34.881813
72.000000	-35.219124
72.125000	-34.435905
72.250000	-35.338081
72.375000	-34.684448
72.500000	-34.185349
72.625000	-35.217587
72.750000	-34.332619
72.875000	-34.764225
73.000000	-35.082653
73.125000	-33.961399
73.250000	-35.008320
73.375000	-34.732086
73.500000	-34.512581
73.625000	-35.447144
73.750000	-34.243702
73.875000	-34.334709
74.000000	-34.890144
74.125000	-34.071049
74.250000	-35.057896
74.375000	-34.773598
74.500000	-34.012791
74.625000	-35.082142
74.750000	-34.216721
74.875000	-34.645061
75.000000	-35.255226
75.125000	-33.971767
75.250000	-34.600155
75.375000	-34.484135
75.500000	-34.056824
75.625000	-35.177402
75.750000	-34.276279
75.875000	-34.132980
76.000000	-34.903706
76.125000	-33.920761
76.250000	-34.882660
76.375000	-34.904655
76.500000	-33.870110
76.625000	-34.848343
76.750000	-34.074844
76.875000	-34.276833
77.000000	-35.164677
77.125000	-33.990402
77.250000	-34.451603
77.375000	-34.685661
77.500000	-33.965942
77.625000	-35.202702
77.750000	-34.507847
77.875000	-34.006474
78.000000	-34.918343
78.125000	-33.884098
78.250000	-34.579372
78.375000	-34.979416
78.500000	-33.847500
78.625000	-34.860577
78.750000	-34.361340
78.875000	-34.241318
79.000000	-35.307953
79.125000	-34.148579
79.250000	-34.290466
79.375000	-34.741585
79.500000	-33.883934
79.625000	-34.991867
79.750000	-34.593273
79.875000	-33.857082
80.000000	-35.015656
80.125000	-34.115128
80.250000	-34.598808
80.375000	-35.165684
80.500000	-33.844845
80.625000	-34.713688
80.750000	-34.517166
80.875000	-34.143414
81.000000	-35.173977
81.125000	-34.111629
81.250000	-34.227875
81.375000	-35.142410
81.500000	-34.167427
81.625000	-34.965729
81.750000	-34.746765
81.875000	-33.795944
82.000000	-35.036869
82.125000	-34.381653
82.250000	-34.347599
82.375000	-35.153309
82.500000	-33.855026
82.625000	-34.789009
82.750000	-34.978542
82.875000	-34.185974
83.000000	-35.111607
83.125000	-34.257717
83.250000	-34.189907
83.375000	-35.288597
83.500000	-34.222614
83.625000	-34.695686
83.750000	-34.909115
83.875000	-34.075569
84.000000	-35.347988
84.125000	-34.764526
84.250000	-34.181633
84.375000	-35.206192
84.500000	-34.112820
84.625000	-34.798290
84.750000	-35.165928
84.875000	-33.972534
85.000000	-35.081245
85.125000	-34.706490
85.250000	-34.468090
85.375000	-35.483566
85.500000	-34.174191
85.625000	-34.486671
85.750000	-35.132801
85.875000	-34.263145
86.000000	-35.132771
86.125000	-34.745667
86.250000	-34.203075
86.375000	-35.570049
86.500000	-34.662098
86.625000	-34.665470
86.750000	-35.253410
86.875000	-34.092365
87.000000	-35.194847
87.125000	-35.091049
87.250000	-34.242210
87.375000	-35.440392
87.500000	-34.550346
87.625000	-34.885437
87.750000	-35.633236
87.875000	-34.209484
88.000000	-34.998631
88.125000	-35.048767
88.250000	-34.469418
88.375000	-35.545200
88.500000	-34.640091
88.625000	-34.665253
88.750000	-35.756344
88.875000	-34.632732
89.000000	-35.086002
89.125000	-35.136486
89.250000	-34.331554
89.375000	-35.628773
89.500000	-34.998158
89.625000	-34.532532
89.750000	-35.694874
89.875000	-34.628128
90.000000	-35.378727
90.125000	-35.575012
90.250000	-34.319218
90.375000	-35.508011
90.500000	-35.057858
90.625000	-34.731228
90.750000	-35.765705
90.875000	-34.559235
91.000000	-35.286217
91.125000	-35.824303
91.250000	-34.654812
91.375000	-35.528938
91.500000	-35.054203
91.625000	-34.790562
91.750000	-35.944538
91.875000	-34.830544
92.000000	-35.082275
92.125000	-35.845211
92.250000	-34.880512
92.375000	-35.744102
92.500000	-35.329811
92.625000	-34.731602
92.750000	-36.010975
92.875000	-35.113617
93.000000	-35.050983
93.125000	-35.898060
93.250000	-34.816467
93.375000	-35.906799
93.500000	-35.721062
93.625000	-34.715214
93.750000	-36.030048
93.875000	-35.255287
94.000000	-35.254951
94.125000	-36.087227
94.250000	-34.799343
94.375000	-35.819370
94.500000	-35.957092
94.625000	-34.934540
94.750000	-36.092587
94.875000	-35.258480
95.000000	-35.328606
95.125000	-36.240974
95.250000	-34.979961
95.375000	-35.788841
95.500000	-36.105442
95.625000	-35.181038
95.750000	-36.161469
95.875000	-35.371338
96.000000	-35.344040
96.125000	-36.437962
96.250000	-35.225151
96.375000	-35.662453
96.500000	-36.154247
96.625000	-35.329960
96.750000	-36.283421
96.875000	-35.675480
97.000000	-35.278870
97.125000	-36.588734
97.250000	-35.537003
97.375000	-35.711201
97.500000	-36.264675
97.625000	-35.391029
97.750000	-36.438354
97.875000	-36.018948
98.000000	-35.284328
98.125000	-36.603535
98.250000	-35.664867
98.375000	-35.781940
98.500000	-36.523029
98.625000	-35.408749
98.750000	-36.543003
98.875000	-36.259174
99.000000	-35.372471
99.125000	-36.693848
99.250000	-35.861969
99.375000	-35.934986
99.500000	-36.727589
99.625000	-35.432503
99.750000	-36.589664
99.875000	-36.509083
100.000000	-35.516911
100.125000	-36.787773
100.250000	-36.002373
100.375000	-36.013680
100.500000	-36.861187
100.625000	-35.581615
100.750000	-36.601402
100.875000	-36.773487
101.000000	-35.664707
101.125000	-36.901051
101.250000	-36.159203
101.375000	-36.171124
101.500000	-37.043549
101.625000	-35.733315
101.750000	-36.604134
101.875000	-36.934284
102.000000	-35.801651
102.125000	-36.945110
102.250000	-36.371700
102.375000	-36.240871
102.500000	-37.246086
102.625000	-35.923786
102.750000	-36.669312
102.875000	-37.120514
103.000000	-35.968025
103.125000	-36.974606
103.250000	-36.584568
103.375000	-36.284229
103.500000	-37.355690
103.625000	-36.121368
103.750000	-36.712460
103.875000	-37.364597
104.000000	-36.126534
104.125000	-37.099636
104.250000	-36.781250
104.375000	-36.445286
104.500000	-37.440136
104.625000	-36.334621
104.750000	-36.794365
104.875000	-37.558773
105.000000	-36.260414
105.125000	-37.166115
105.250000	-37.054771
105.375000	-36.479809
105.500000	-37.592468
105.625000	-36.566422
105.750000	-36.900116
105.875000	-37.690216
106.000000	-36.428570
106.125000	-37.248566
106.250000	-37.346836
106.375000	-36.601505
106.500000	-37.656277
106.625000	-36.793404
106.750000	-37.026218
106.875000	-37.942459
107.000000	-36.554169
107.125000	-37.359024
107.250000	-37.571075
107.375000	-36.723011
107.500000	-37.747612
107.625000	-37.083759
107.750000	-37.086029
107.875000	-38.044312
108.000000	-36.692749
108.125000	-37.466942
108.250000	-37.857712
108.375000	-36.765881
108.500000	-37.891865
108.625000	-37.328156
108.750000	-37.162842
108.875000	-38.113945
109.000000	-36.920048
109.125000	-37.577030
109.250000	-38.064846
109.375000	-36.833851
109.500000	-37.998905
109.625000	-37.698154
109.750000	-37.157627
109.875000	-38.301117
110.000000	-37.169975
110.125000	-37.711868
110.250000	-38.266197
110.375000	-36.986832
110.500000	-38.160412
110.625000	-37.968578
110.750000	-37.207424
110.875000	-38.405514
111.000000	-37.513737
111.125000	-37.694134
111.250000	-38.463535
111.375000	-37.174770
111.500000	-38.290924
111.625000	-38.176807
111.750000	-37.225941
111.875000	-38.599640
112.000000	-37.799618
112.125000	-37.630497
112.250000	-38.527767
112.375000	-37.487038
112.500000	-38.295147
112.625000	-38.394337
112.750000	-37.395523
112.875000	-38.731312
113.000000	-38.049137
113.125000	-37.719795
113.250000	-38.823280
113.375000	-37.779194
113.500000	-38.267582
113.625000	-38.486568
113.750000	-37.712662
113.875000	-38.797611
114.000000	-38.187412
114.125000	-37.878498
114.250000	-39.030426
114.375000	-38.019108
114.500000	-38.280762
114.625000	-38.797600
114.750000	-37.930847
114.875000	-38.855770
115.000000	-38.316422
115.125000	-38.130402
115.250000	-39.177372
115.375000	-38.033413
115.500000	-38.576954
115.625000	-39.057934
115.750000	-38.037941
115.875000	-38.954903
116.000000	-38.666634
116.125000	-38.286167
116.250000	-39.276630
116.375000	-38.251316
116.500000	-38.697716
116.625000	-39.330166
116.750000	-38.023556
116.875000	-39.165749
117.000000	-38.992874
117.125000	-38.198017
117.250000	-39.466339
117.375000	-38.634594
117.500000	-38.672470
117.625000	-39.453178
117.750000	-38.384895
117.875000	-39.233143
118.000000	-39.253468
118.125000	-38.352856
118.250000	-39.672207
118.375000	-38.937954
118.500000	-38.640961
118.625000	-39.692635
118.750000	-38.654465
118.875000	-39.200657
119.000000	-39.332500
119.125000	-38.801872
119.250000	-38.781063
119.375000	-36.862286
119.500000	-35.156448
119.625000	-38.429337
119.750000	-38.626400
119.875000	-39.404846
120.000000	-39.678627
120.125000	-38.760128
120.250000	-39.788944
120.375000	-39.295872
120.500000	-39.045597
120.625000	-40.078186
120.750000	-38.900967
120.875000	-39.603104
121.000000	-39.975204
121.125000	-38.824642
121.250000	-40.050594
121.375000	-39.655663
121.500000	-38.947659
121.625000	-40.162117
121.750000	-39.397182
121.875000	-39.454781
122.000000	-40.108078
122.125000	-39.235615
122.250000	-39.965599
122.375000	-39.791855
122.500000	-39.372707
122.625000	-40.375744
122.750000	-39.387344
122.875000	-39.652180
123.000000	-40.356384
123.125000	-39.306690
123.250000	-40.151123
123.375000	-40.034256
123.500000	-39.470161
123.625000	-40.488258
123.750000	-39.709534
123.875000	-39.825016
124.000000	-40.539959
124.125000	-39.429489
124.250000	-40.262119
124.375000	-40.400116
124.500000	-39.442894
124.625000	-40.722778
124.750000	-40.058113
124.875000	-39.726139
125.000000	-40.799458
125.125000	-39.808647
125.250000	-40.267582
125.375000	-40.465176
125.500000	-39.832336
125.625000	-40.711037
125.750000	-40.044857
125.875000	-40.163403
126.000000	-40.942642
126.125000	-39.811756
126.250000	-40.569435
126.375000	-40.876629
126.500000	-39.793293
126.625000	-40.935429
126.750000	-40.557713
126.875000	-39.909683
127.000000	-41.113380
127.125000	-40.281677
127.250000	-40.417961
127.375000	-40.992985
127.500000	-40.185192
127.625000	-40.955948
127.750000	-40.580898
127.875000	-40.375660
128.000000	-41.273098
128.125000	-40.261536
128.250000	-40.779015
128.375000	-41.245327
128.500000	-40.176723
128.625000	-41.137447
128.750000	-41.008366
128.875000	-40.280670
129.000000	-41.418880
129.125000	-40.725334
129.250000	-40.621861
129.375000	-41.440529
129.500000	-40.526917
129.625000	-41.106216
129.750000	-41.166618
129.875000	-40.622673
130.000000	-41.573486
130.125000	-40.774902
130.250000	-40.921680
130.375000	-41.655052
130.500000	-40.547005
130.625000	-41.446465
130.750000	-41.467392
130.875000	-40.619579
131.000000	-41.756142
131.125000	-41.179478
131.250000	-40.945972
131.375000	-41.825474
131.500000	-40.973900
131.625000	-41.325695
131.750000	-41.624481
131.875000	-41.017487
132.000000	-41.773670
132.125000	-41.289669
132.250000	-41.277855
132.375000	-42.076099
132.500000	-40.982292
132.625000	-41.639648
132.750000	-41.983215
132.875000	-40.894543
133.000000	-42.094460
133.125000	-41.720325
133.250000	-41.088295
133.375000	-42.211151
133.500000	-41.473423
133.625000	-41.527157
133.750000	-42.050503
133.875000	-41.444206
134.000000	-42.022842
134.125000	-41.713127
134.250000	-41.531437
134.375000	-42.285919
134.500000	-41.466259
134.625000	-41.876362
134.750000	-42.356598
134.875000	-41.347256
135.000000	-42.223114
135.125000	-42.206806
135.250000	-41.489311
135.375000	-42.555325
135.500000	-41.880627
135.625000	-41.777336
135.750000	-42.501785
135.875000	-41.621635
136.000000	-42.311188
136.125000	-42.344898
136.250000	-41.670082
136.375000	-42.714890
136.500000	-42.025906
136.625000	-41.930038
136.750000	-42.795883
136.875000	-41.920692
137.000000	-42.312157
137.125000	-42.455070
137.250000	-41.949532
137.375000	-42.662647
137.500000	-42.136768
137.625000	-42.301548
137.750000	-42.920643
137.875000	-41.914574
138.000000	-42.566380
138.125000	-42.827709
138.250000	-41.873722
138.375000	-42.919041
138.500000	-42.661095
138.625000	-42.126331
138.750000	-43.054157
138.875000	-42.352547
139.000000	-42.581425
139.125000	-43.047718
139.250000	-42.226688
139.375000	-43.014145
139.500000	-42.761940
139.625000	-42.260834
139.750000	-43.349503
139.875000	-42.579678
140.000000	-42.626701
140.125000	-43.233799
140.250000	-42.504486
140.375000	-43.051281
140.500000	-42.904758
140.625000	-42.693687
140.750000	-43.434490
140.875000	-42.605648
141.000000	-42.932632
141.125000	-43.437622
141.250000	-42.519386
141.375000	-43.305153
141.500000	-43.242252
141.625000	-42.666855
141.750000	-43.470097
141.875000	-42.948986
142.000000	-43.099174
142.125000	-43.640457
142.250000	-42.737431
142.375000	-43.413429
142.500000	-43.472404
142.625000	-42.677227
142.750000	-43.751495
142.875000	-43.363960
143.000000	-42.950871
143.125000	-43.744144
143.250000	-43.102032
143.375000	-43.428246
143.500000	-43.690052
143.625000	-43.035469
143.750000	-43.868294
143.875000	-43.437263
144.000000	-43.105774
144.125000	-44.100456
144.250000	-43.382744
144.375000	-43.467773
144.500000	-43.828396
144.625000	-43.279079
144.750000	-43.893661
144.875000	-43.546967
145.000000	-43.483242
145.125000	-44.253323
145.250000	-43.330219
145.375000	-43.649086
145.500000	-44.141766
145.625000	-43.430805
145.750000	-44.074989
145.875000	-43.816860
146.000000	-43.646828
146.125000	-44.263435
146.250000	-43.504555
146.375000	-43.978416
146.500000	-44.332966
146.625000	-43.418938
146.750000	-44.202473
146.875000	-44.126244
147.000000	-43.711342
147.125000	-44.458424
147.250000	-43.810932
147.375000	-44.085636
147.500000	-44.452030
147.625000	-43.580112
147.750000	-44.524120
147.875000	-44.466839
148.000000	-43.669250
148.125000	-44.541885
148.250000	-44.111950
148.375000	-44.101727
148.500000	-44.747250
148.625000	-43.957817
148.750000	-44.544571
148.875000	-44.611099
149.000000	-43.832085
149.125000	-44.878883
149.250000	-44.515358
149.375000	-44.082535
149.500000	-44.812534
149.625000	-44.188049
149.750000	-44.627903
149.875000	-44.852177
150.000000	-44.045197
150.125000	-44.942741
150.250000	-44.639217
150.375000	-44.171326
150.500000	-45.136681
150.625000	-44.534302
150.750000	-44.630455
150.875000	-44.921150
151.000000	-44.242908
151.125000	-45.130322
151.250000	-44.888962
151.375000	-44.302921
151.500000	-45.237713
151.625000	-44.685852
151.750000	-44.638565
151.875000	-45.172485
152.000000	-44.588951
152.125000	-45.225529
152.250000	-45.013920
152.375000	-44.535194
152.500000	-45.470043
152.625000	-44.947174
152.750000	-44.775043
152.875000	-45.297798
153.000000	-44.730629
153.125000	-45.274170
153.250000	-45.219288
153.375000	-44.743782
153.500000	-45.584354
153.625000	-44.999199
153.750000	-44.886154
153.875000	-45.608475
154.000000	-45.075302
154.125000	-45.454773
154.250000	-45.337246
154.375000	-44.844181
154.500000	-45.810932
154.625000	-45.361412
154.750000	-45.066086
154.875000	-45.728569
155.000000	-45.142971
155.125000	-45.437386
155.250000	-45.612698
155.375000	-45.110737
155.500000	-45.932762
155.625000	-45.453747
155.750000	-45.101139
155.875000	-45.999405
156.000000	-45.455307
156.125000	-45.618752
156.250000	-45.756752
156.375000	-45.214169
156.500000	-46.040997
156.625000	-45.744820
156.750000	-45.288933
156.875000	-46.076794
157.000000	-45.568653
157.125000	-45.714611
157.250000	-46.056198
157.375000	-45.398819
157.500000	-46.178276
157.625000	-45.904724
157.750000	-45.409229
157.875000	-46.320072
158.000000	-45.847713
158.125000	-45.848957
158.250000	-46.142834
158.375000	-45.507637
158.500000	-46.360561
158.625000	-46.245033
158.750000	-45.602974
158.875000	-46.349377
159.000000	-45.906857
159.125000	-46.057110
159.250000	-46.492710
159.375000	-45.724499
159.500000	-46.418610
159.625000	-46.366444
159.750000	-45.783207
159.875000	-46.622021
160.000000	-46.184525
160.125000	-46.180309
160.250000	-46.593372
160.375000	-45.845612
160.500000	-46.571945
160.625000	-46.703415
160.750000	-46.006824
160.875000	-46.537182
161.000000	-46.273758
161.125000	-46.434196
161.250000	-46.879814
161.375000	-46.052025
161.500000	-46.546837
161.625000	-46.763844
161.750000	-46.272644
161.875000	-46.858208
162.000000	-46.457844
162.125000	-46.487686
162.250000	-47.008999
162.375000	-46.329433
162.500000	-46.632095
162.625000	-46.944939
162.750000	-46.488091
162.875000	-46.895508
163.000000	-46.660095
163.125000	-46.561028
163.250000	-47.282032
163.375000	-46.632080
163.500000	-46.668949
163.625000	-47.110191
163.750000	-46.650486
163.875000	-47.180462
164.000000	-46.908318
164.125000	-46.507420
164.250000	-47.398617
164.375000	-46.997910
164.500000	-46.866203
164.625000	-47.201275
164.750000	-46.672291
164.875000	-47.381611
165.000000	-47.340435
165.125000	-46.636108
165.250000	-47.424431
165.375000	-47.065399
165.500000	-47.164970
165.625000	-47.567039
165.750000	-46.755814
165.875000	-47.426853
166.000000	-47.470661
166.125000	-46.978657
166.250000	-47.601109
166.375000	-47.140202
166.500000	-47.251347
166.625000	-47.703831
166.750000	-47.074711
166.875000	-47.405758
167.000000	-47.575214
167.125000	-47.303162
167.250000	-47.713699
167.375000	-47.305088
167.500000	-47.356823
167.625000	-47.965046
167.750000	-47.289627
167.875000	-47.480011
168.000000	-47.756477
168.125000	-47.318497
168.250000	-47.998089
168.375000	-47.632992
168.500000	-47.245148
168.625000	-48.046242
168.750000	-47.638115
168.875000	-47.754116
169.000000	-47.895069
169.125000	-47.296165
169.250000	-48.135792
169.375000	-48.050190
169.500000	-47.535496
169.625000	-48.033512
169.750000	-47.559963
169.875000	-48.024570
170.000000	-48.343876
170.125000	-47.519882
170.250000	-47.989262
170.375000	-47.999207
170.500000	-47.985985
170.625000	-48.475750
170.750000	-47.733238
170.875000	-47.793518
171.000000	-48.422806
171.125000	-48.038105
171.250000	-48.280716
171.375000	-48.156326
171.500000	-47.758980
171.625000	-48.575756
171.750000	-48.315784
171.875000	-48.048817
172.000000	-48.399132
172.125000	-47.857521
172.250000	-48.561680
172.375000	-48.616226
172.500000	-47.892262
172.625000	-48.510662
172.750000	-48.205875
172.875000	-48.430069
173.000000	-48.919159
173.125000	-48.024334
173.250000	-48.312603
173.375000	-48.641441
173.500000	-48.406830
173.625000	-48.779686
173.750000	-48.325409
173.875000	-48.260353
174.000000	-48.965405
174.125000	-48.576454
174.250000	-48.610062
174.375000	-48.699856
174.500000	-48.227566
174.625000	-49.081631
174.750000	-48.897610
174.875000	-48.372574
175.000000	-48.925453
175.125000	-48.452995
175.250000	-48.925526
175.375000	-49.208115
175.500000	-48.412292
175.625000	-48.871372
175.750000	-48.801807
175.875000	-48.764580
176.000000	-49.366112
176.125000	-48.695908
176.250000	-48.689251
176.375000	-49.163692
176.500000	-48.816814
176.625000	-49.317085
176.750000	-49.043758
176.875000	-48.579144
177.000000	-49.394924
177.125000	-49.022514
177.250000	-49.037060
177.375000	-49.350269
177.500000	-48.697239
177.625000	-49.258335
177.750000	-49.416985
177.875000	-49.023460
178.000000	-49.410728
178.125000	-49.016674
178.250000	-49.113583
178.375000	-49.709927
178.500000	-49.122131
178.625000	-49.332962
178.750000	-49.467911
178.875000	-48.967674
179.000000	-49.921665
179.125000	-49.854385
179.250000	-49.618900
179.375000	-50.078709
179.500000	-49.094337
179.625000	-49.566734
179.750000	-49.738274
179.875000	-49.313606
180.000000	-49.777397
180.125000	-49.383961
180.250000	-49.333332
180.375000	-50.017708
180.500000	-49.586685
180.625000	-49.569786
180.750000	-49.760445
180.875000	-49.317345
181.000000	-50.033993
181.125000	-49.936504
181.250000	-49.463257
181.375000	-49.881752
181.500000	-49.427849
181.625000	-49.938244
181.750000	-50.274891
181.875000	-49.517891
182.000000	-49.850788
182.125000	-49.808369
182.250000	-49.776306
182.375000	-50.425907
182.500000	-49.816090
182.625000	-49.746109
182.750000	-50.224358
182.875000	-49.697674
183.000000	-50.260456
183.125000	-50.209045
183.250000	-49.830078
183.375000	-50.275101
183.500000	-49.771683
183.625000	-50.149193
183.750000	-50.606201
183.875000	-49.984470
184.000000	-50.179596
184.125000	-50.213444
184.250000	-49.916092
184.375000	-50.602230
184.500000	-50.360519
184.625000	-50.129463
184.750000	-50.430508
184.875000	-49.907673
185.000000	-50.540157
185.125000	-50.747337
185.250000	-50.178059
185.375000	-50.505131
185.500000	-50.226589
185.625000	-50.282722
185.750000	-50.894073
185.875000	-50.358967
186.000000	-50.515408
186.125000	-50.712841
186.250000	-50.161621
186.375000	-50.771618
186.500000	-50.616650
186.625000	-50.580276
186.750000	-50.977032
186.875000	-50.189789
187.000000	-50.502888
187.125000	-50.951916
187.250000	-50.623360
187.375000	-50.971409
187.500000	-50.719860
187.625000	-50.370651
187.750000	-51.042965
187.875000	-50.718155
188.000000	-50.942917
188.125000	-51.098785
188.250000	-50.461357
188.375000	-50.941406
188.500000	-50.905525
188.625000	-50.786861
188.750000	-51.366615
188.875000	-50.995209
189.000000	-50.803936
189.125000	-51.105602
189.250000	-50.644947
189.375000	-51.394997
189.500000	-51.408382
189.625000	-50.813599
189.750000	-51.228546
189.875000	-50.814419
190.000000	-51.089226
190.125000	-51.635471
190.250000	-51.023922
190.375000	-51.220795
190.500000	-51.263165
190.625000	-50.852924
190.750000	-51.530807
190.875000	-51.202049
191.000000	-51.347099
191.125000	-51.732529
191.250000	-50.920753
191.375000	-51.220783
191.500000	-51.480652
191.625000	-51.302650
191.750000	-51.860119
191.875000	-51.417557
192.000000	-51.099033
192.125000	-51.662209
192.250000	-51.188110
192.375000	-51.717228
192.500000	-51.853275
192.625000	-51.280231
192.750000	-51.734486
192.875000	-51.424927
193.000000	-51.245411
193.125000	-51.993935
193.250000	-51.768650
193.375000	-51.781673
193.500000	-51.781200
193.625000	-51.179813
193.750000	-51.893032
193.875000	-51.881248
194.000000	-51.639641
194.125000	-52.203346
194.250000	-51.813320
194.375000	-51.589470
194.500000	-51.936363
194.625000	-51.557575
194.750000	-52.181656
194.875000	-52.250050
195.000000	-51.751621
195.125000	-52.119625
195.250000	-51.682697
195.375000	-51.785507
195.500000	-52.389599
195.625000	-52.001446
195.750000	-52.207352
195.875000	-52.198509
196.000000	-51.724167
196.125000	-52.268551
196.250000	-51.956543
196.375000	-52.204002
196.500000	-52.704250
196.625000	-52.004742
196.750000	-52.150978
196.875000	-52.292896
197.000000	-51.873447
197.125000	-52.600185
197.250000	-52.385773
197.375000	-52.325111
197.500000	-52.698475
197.625000	-51.952198
197.750000	-52.223217
197.875000	-52.474453
198.000000	-52.162899
198.125000	-52.903652
198.250000	-52.622261
198.375000	-52.172531
198.500000	-52.719589
198.625000	-52.147839
198.750000	-52.480339
198.875000	-52.897026
199.000000	-52.521873
199.125000	-52.850643
199.250000	-52.577095
199.375000	-52.266350
199.500000	-52.766640
199.625000	-52.331932
199.750000	-52.810146
199.875000	-53.140266
200.000000	-52.520073
200.125000	-52.846260
200.250000	-52.713100
200.375000	-52.366341
200.500000	-53.065670
200.625000	-52.768993
200.750000	-52.981808
200.875000	-53.223690
201.000000	-52.530434
201.125000	-52.880131
201.250000	-52.810047
201.375000	-52.563484
201.500000	-53.434345
201.625000	-53.145683
201.750000	-52.995995
201.875000	-53.281384
202.000000	-52.690865
202.125000	-53.017941
202.250000	-53.120010
202.375000	-52.880692
202.500000	-53.491383
202.625000	-53.290157
202.750000	-53.067753
202.875000	-53.304916
203.000000	-52.730297
203.125000	-53.232048
203.250000	-53.419361
203.375000	-53.030888
203.500000	-53.715977
203.625000	-53.506168
203.750000	-52.941647
203.875000	-53.397690
204.000000	-52.955582
204.125000	-53.350723
204.250000	-53.704426
204.375000	-53.239716
204.500000	-53.721695
204.625000	-53.588276
204.750000	-53.123428
204.875000	-53.538933
205.000000	-53.120213
205.125000	-53.646145
205.250000	-53.971508
205.375000	-53.382565
205.500000	-53.846386
205.625000	-53.693607
205.750000	-53.111423
205.875000	-53.747536
206.000000	-53.435898
206.125000	-53.753601
206.250000	-54.213856
206.375000	-53.578407
206.500000	-53.918179
206.625000	-53.866550
206.750000	-53.314976
206.875000	-53.904694
207.000000	-53.512642
207.125000	-53.894775
207.250000	-54.384411
207.375000	-53.711678
207.500000	-54.061600
207.625000	-54.025635
207.750000	-53.413143
207.875000	-54.036846
208.000000	-53.752281
208.125000	-53.958141
208.250000	-54.511410
208.375000	-53.967373
208.500000	-54.244534
208.625000	-54.259235
208.750000	-53.565571
208.875000	-54.102085
209.000000	-53.972878
209.125000	-54.129028
209.250000	-54.612534
209.375000	-54.083508
209.500000	-54.458130
209.625000	-54.545227
209.750000	-53.692135
209.875000	-54.320740
210.000000	-54.141308
210.125000	-54.072151
210.250000	-54.824986
210.375000	-54.375420
210.500000	-54.426510
210.625000	-54.658684
210.750000	-54.042126
210.875000	-54.346096
211.000000	-54.243401
211.125000	-54.246159
211.250000	-54.877369
211.375000	-54.467102
211.500000	-54.728439
211.625000	-54.962574
211.750000	-54.180710
211.875000	-54.580692
212.000000	-54.474682
212.125000	-54.108448
212.250000	-54.850746
212.375000	-54.592052
212.500000	-54.873379
212.625000	-55.135975
212.750000	-54.466763
212.875000	-54.827171
213.000000	-54.712509
213.125000	-54.241257
213.250000	-54.990780
213.375000	-54.661900
213.500000	-54.719326
213.625000	-55.302830
213.750000	-54.955780
213.875000	-54.967541
214.000000	-54.959538
214.125000	-54.586300
214.250000	-55.034206
214.375000	-54.594059
214.500000	-54.782810
214.625000	-55.454739
214.750000	-54.944469
214.875000	-55.311832
215.000000	-55.435688
215.125000	-54.810753
215.250000	-55.122803
215.375000	-54.828480
215.500000	-54.854099
215.625000	-55.378704
215.750000	-54.868359
215.875000	-55.517250
216.000000	-55.766617
216.125000	-55.061623
216.250000	-55.572884
216.375000	-55.317482
216.500000	-54.837589
216.625000	-55.324314
216.750000	-54.878330
216.875000	-55.278076
217.000000	-55.665894
217.125000	-55.375641
217.250000	-55.937958
217.375000	-55.739990
217.500000	-55.132240
217.625000	-55.597191
217.750000	-55.190250
217.875000	-55.190239
218.000000	-55.603352
218.125000	-55.241299
218.250000	-55.864162
218.375000	-55.873703
218.500000	-55.686382
218.625000	-56.165253
218.750000	-55.610069
218.875000	-55.431656
219.000000	-55.785786
219.125000	-55.167862
219.250000	-55.624447
219.375000	-55.772160
219.500000	-55.595097
219.625000	-56.342113
219.750000	-56.085968
219.875000	-55.934464
220.000000	-56.220207
220.125000	-55.585415
220.250000	-55.781517
220.375000	-55.780155
220.500000	-55.382339
220.625000	-55.971573
220.750000	-55.755898
220.875000	-56.009300
221.000000	-56.515007
221.125000	-56.000324
221.250000	-56.228817
221.375000	-56.325874
221.500000	-55.845638
221.625000	-56.114975
221.750000	-55.700375
221.875000	-55.697662
222.000000	-56.269573
222.125000	-55.789928
222.250000	-56.415478
222.375000	-56.644283
222.500000	-56.044899
222.625000	-56.664223
222.750000	-56.521069
222.875000	-56.012463
223.000000	-56.352287
223.125000	-55.786972
223.250000	-56.053337
223.375000	-56.345001
223.500000	-56.001797
223.625000	-56.673847
223.750000	-56.544388
223.875000	-56.492588
224.000000	-56.975246
224.125000	-56.390728
224.250000	-56.568344
224.375000	-56.757896
224.500000	-55.862858
224.625000	-56.445309
224.750000	-56.462334
224.875000	-56.011971
225.000000	-56.885422
225.125000	-56.719894
225.250000	-56.825760
225.375000	-57.120777
225.500000	-56.607315
225.625000	-57.066532
225.750000	-56.951553
225.875000	-56.383022
226.000000	-56.875019
226.125000	-56.412910
226.250000	-56.278610
226.375000	-56.785194
226.500000	-56.254543
226.625000	-57.076626
226.750000	-57.282249
226.875000	-56.624962
227.000000	-57.528492
227.125000	-57.445335
227.250000	-56.892059
227.375000	-57.307930
227.500000	-56.831207
227.625000	-56.840168
227.750000	-56.836163
227.875000	-56.365822
228.000000	-57.162594
228.125000	-56.965942
228.250000	-56.826469
228.375000	-57.446373
228.500000	-57.082943
228.625000	-57.555401
228.750000	-57.767712
228.875000	-57.056911
229.000000	-57.640762
229.125000	-57.355389
229.250000	-56.764408
229.375000	-57.237713
229.500000	-56.812023
229.625000	-56.944412
229.750000	-57.285583
229.875000	-56.883625
230.000000	-57.646011
230.125000	-57.697731
230.250000	-57.372101
230.375000	-58.089687
230.500000	-57.694893
230.625000	-57.651638
230.750000	-57.953030
230.875000	-57.379131
231.000000	-57.491093
231.125000	-57.329174
231.250000	-57.006523
231.375000	-57.605976
231.500000	-57.186134
231.625000	-57.383377
231.750000	-57.911758
231.875000	-57.293755
232.000000	-58.007099
232.125000	-58.241764
232.250000	-57.760090
232.375000	-58.429825
232.500000	-58.155853
232.625000	-57.611446
232.750000	-58.049549
232.875000	-57.527111
233.000000	-57.609562
233.125000	-57.660782
233.250000	-57.060989
233.375000	-57.827183
233.500000	-57.704014
233.625000	-57.469566
233.750000	-58.181049
233.875000	-58.036720
234.000000	-58.311672
234.125000	-58.498863
234.250000	-58.156040
234.375000	-58.837387
234.500000	-58.427956
234.625000	-58.038319
234.750000	-58.487957
234.875000	-57.855492
235.000000	-57.980247
235.125000	-58.174622
235.250000	-57.441193
235.375000	-57.966255
235.500000	-57.841278
235.625000	-57.715343
235.750000	-58.310211
235.875000	-57.820152
236.000000	-58.437447
236.125000	-58.877346
236.250000	-58.184757
236.375000	-58.952835
236.500000	-59.074955
236.625000	-58.608139
236.750000	-59.058338
236.875000	-58.557812
237.000000	-58.486275
237.125000	-58.648777
237.250000	-57.924000
237.375000	-58.284260
237.500000	-58.334900
237.625000	-57.668751
237.750000	-58.401302
237.875000	-58.208706
238.000000	-58.136570
238.125000	-58.618069
238.250000	-58.269375
238.375000	-58.926655
238.500000	-59.076225
238.625000	-58.603825
238.750000	-58.565182
238.875000	-57.624683
239.000000	-57.649330
239.125000	-58.389252
239.250000	-58.969189
239.375000	-59.077847
239.500000	-59.083782
239.625000	-58.638527
239.750000	-58.715076
239.875000	-58.379883
240.000000	-58.241943
240.125000	-58.746525
240.250000	-58.334660
240.375000	-58.308922
240.500000	-58.615936
240.625000	-58.616859
240.750000	-59.151123
240.875000	-58.913387
241.000000	-58.813305
241.125000	-59.577358
241.250000	-59.395569
241.375000	-59.465958
241.500000	-59.778038
241.625000	-59.547897
241.750000	-59.928627
241.875000	-59.729633
242.000000	-59.546768
242.125000	-59.921883
242.250000	-59.248089
242.375000	-59.136360
242.500000	-59.519005
242.625000	-59.073647
242.750000	-59.038635
242.875000	-58.830502
243.000000	-58.480167
243.125000	-59.158493
243.250000	-58.727230
243.375000	-58.643814
243.500000	-59.096100
243.625000	-58.733009
243.750000	-59.211319
243.875000	-59.192593
244.000000	-59.012276
244.125000	-59.774101
244.250000	-59.515514
244.375000	-59.786507
244.500000	-60.259068
244.625000	-59.832851
244.750000	-60.302502
244.875000	-60.340355
245.000000	-60.299740
245.125000	-60.667324
245.250000	-60.144608
245.375000	-60.009998
245.500000	-60.483944
245.625000	-59.984886
245.750000	-59.941624
245.875000	-59.951336
246.000000	-59.572189
246.125000	-59.722996
246.250000	-59.284588
246.375000	-59.007935
246.500000	-59.495842
246.625000	-59.111240
246.750000	-58.983986
246.875000	-59.272362
247.000000	-59.081947
247.125000	-59.337227
247.250000	-59.167679
247.375000	-58.840172
247.500000	-59.670151
247.625000	-59.699936
247.750000	-59.555290
247.875000	-59.861355
248.000000	-59.485638
248.125000	-60.318344
248.250000	-60.411381
248.375000	-59.969696
248.500000	-60.803673
248.625000	-60.615139
248.750000	-60.927719
248.875000	-61.262524
249.000000	-60.586052
249.125000	-61.492298
249.250000	-61.436550
249.375000	-60.833878
249.500000	-61.578773
249.625000	-61.204185
249.750000	-61.270374
249.875000	-61.351921
250.000000	-60.553585
250.125000	-61.062027
250.250000	-61.083015
250.375000	-60.443279
250.500000	-60.549145
250.625000	-60.155811
250.750000	-60.224606
250.875000	-60.393890
251.000000	-59.525997
251.125000	-59.567745
251.250000	-59.769978
251.375000	-59.369038
251.500000	-59.623371
251.625000	-59.271702
251.750000	-59.078747
251.875000	-59.489590
252.000000	-58.927399
252.125000	-58.753017
252.250000	-58.914452
252.375000	-58.725826
252.500000	-59.112385
252.625000	-58.963806
252.750000	-58.546711
252.875000	-59.017609
253.000000	-58.928623
253.125000	-58.891655
253.250000	-59.013649
253.375000	-58.544079
253.500000	-58.932293
253.625000	-59.194691
253.750000	-58.953705
253.875000	-59.193672
254.000000	-58.921265
254.125000	-59.039490
254.250000	-59.358765
254.375000	-58.990833
254.500000	-59.213169
254.625000	-59.298374
254.750000	-59.429668
254.875000	-59.711559
255.000000	-59.419205
255.125000	-59.382641
255.250000	-59.483208
255.375000	-59.465870
255.500000	-59.573563
255.625000	-59.513504
255.750000	-59.503338
255.875000	-59.631954
